timestamps,TP9,AF7,AF8,TP10,Right AUX
1586550067,-0.488,33.691,33.691,-2.441,24.902
1586550067.004,140.137,31.738,31.25,50.293,-17.578
1586550067.008,64.453,32.715,29.297,34.18,3.418
1586550067.011,-84.961,31.25,33.691,-17.09,25.391
1586550067.015,-38.086,29.297,36.621,-5.371,-1.953
1586550067.019,128.418,32.227,31.738,58.105,67.383
1586550067.023,120.605,32.715,33.203,57.617,42.969
1586550067.027,-55.664,32.227,35.645,-5.371,-22.461
1586550067.031,-58.105,33.203,34.668,-12.695,13.184
1586550067.035,85.449,31.25,30.762,34.18,74.219
1586550067.039,145.996,31.25,28.809,65.918,59.57
1586550067.043,-16.113,31.25,33.203,13.184,21.973
1586550067.047,-80.078,30.273,34.18,-15.625,1.465
1586550067.051,38.574,31.25,30.762,28.32,0.977
1586550067.054,162.109,34.18,29.785,77.637,34.668
1586550067.058,47.363,34.668,33.691,48.34,37.109
1586550067.062,-70.312,35.645,36.621,-12.207,9.766
1586550067.066,0.488,36.133,35.645,-4.883,-4.883
1586550067.07,153.809,38.086,33.203,51.758,-2.441
1586550067.074,102.539,41.992,34.18,33.691,35.645
1586550067.078,-62.988,38.574,38.574,-19.531,57.617
1586550067.082,-34.668,33.203,39.551,-4.883,12.695
1586550067.086,123.047,32.715,37.109,46.387,45.41
1586550067.09,135.254,33.203,38.574,56.152,78.125
1586550067.094,-32.227,32.715,39.551,0,45.898
1586550067.097,-47.852,33.691,37.598,-12.695,4.883
1586550067.101,92.773,33.203,36.133,34.668,-5.371
1586550067.105,166.504,30.762,34.18,70.312,-7.324
1586550067.109,2.441,31.25,36.621,16.602,-11.719
1586550067.113,-78.125,35.645,35.156,-21.973,71.777
1586550067.117,22.461,35.645,30.762,12.695,48.828
1586550067.121,154.785,35.156,34.18,64.941,32.715
1586550067.125,53.711,37.109,38.574,25.879,53.711
1586550067.129,-79.59,35.156,32.715,-27.832,7.812
1586550067.133,-11.719,32.715,25.879,-8.301,-44.434
1586550067.136,133.789,30.762,26.367,46.875,-8.301
1586550067.14,93.262,29.785,28.809,41.992,41.992
1586550067.144,-62.5,30.273,25.879,-17.578,11.23
1586550067.148,-41.504,30.273,24.414,-11.23,-49.316
1586550067.152,111.816,29.297,27.344,52.246,-40.527
1586550067.156,138.672,27.832,33.203,75.684,0
1586550067.16,-38.086,29.297,30.762,5.371,25.391
1586550067.164,-80.078,31.738,28.809,-21.973,-21.484
1586550067.168,50.293,31.25,31.738,26.367,-32.227
1586550067.172,146.973,30.273,27.344,52.246,12.695
1586550067.176,11.719,30.273,27.344,3.906,10.254
1586550067.179,-81.055,29.785,31.25,-26.367,34.18
1586550067.183,11.23,32.227,32.227,9.277,43.945
1586550067.187,164.551,30.273,32.715,57.129,45.898
1586550067.191,80.566,29.785,34.18,27.832,53.711
1586550067.195,-67.383,33.691,32.227,-20.508,42.48
1586550067.199,-10.254,32.715,31.25,0.488,41.016
1586550067.203,134.766,31.25,30.273,64.941,40.527
1586550067.207,96.191,34.18,29.297,64.453,-13.184
1586550067.211,-80.078,33.691,32.715,1.953,-4.883
1586550067.215,-79.102,32.715,31.738,-9.277,31.25
1586550067.219,78.613,33.691,30.762,37.598,45.41
1586550067.222,143.555,36.133,31.25,53.223,42.969
1586550067.226,-14.648,36.621,31.25,-3.418,7.812
1586550067.23,-65.918,34.668,34.18,-12.695,10.254
1586550067.234,46.387,31.25,34.668,26.855,43.945
1586550067.238,152.344,32.227,30.273,60.059,57.617
1586550067.242,27.344,32.715,30.762,20.508,93.75
1586550067.246,-86.426,29.785,34.668,-20.508,58.105
1586550067.25,-2.441,32.715,34.668,7.812,44.922
1586550067.254,142.09,31.738,33.691,62.988,41.016
1586550067.258,71.289,31.738,33.203,44.922,32.227
1586550067.261,-75.195,30.762,32.715,-13.184,0.977
1586550067.265,-35.156,27.344,33.203,-10.742,-57.129
1586550067.269,121.094,30.762,31.25,46.875,-2.93
1586550067.273,121.582,32.715,32.227,48.34,51.27
1586550067.277,-49.316,32.715,37.109,-5.371,34.18
1586550067.281,-60.547,33.203,34.18,-11.719,3.418
1586550067.285,79.59,34.18,32.227,33.203,41.016
1586550067.289,155.273,35.645,31.738,62.012,57.129
1586550067.293,-4.883,35.645,32.227,18.555,-24.902
1586550067.297,-86.426,36.133,34.18,-11.23,-52.734
1586550067.301,27.344,36.133,31.738,23.926,25.391
1586550067.304,141.602,35.156,32.715,71.777,77.148
1586550067.308,22.949,35.645,35.156,29.297,62.012
1586550067.312,-85.449,36.621,32.227,-27.344,99.121
1586550067.316,-6.348,37.109,30.273,-12.695,78.125
1586550067.32,146.484,36.133,30.762,51.758,61.035
1586550067.324,94.238,36.621,32.715,46.875,67.871
1586550067.328,-67.383,39.551,31.25,-12.207,0
1586550067.332,-51.27,37.109,28.32,-9.277,18.066
1586550067.336,100.586,35.156,31.25,46.387,20.02
1586550067.34,127.441,36.133,32.715,64.453,-11.719
1586550067.344,-45.898,36.133,34.668,12.207,41.504
1586550067.347,-69.824,37.109,35.645,-5.859,42.969
1586550067.351,67.383,36.621,35.645,40.527,-3.906
1586550067.355,158.203,36.621,33.691,68.359,-7.324
1586550067.359,9.277,40.039,31.25,13.184,70.801
1586550067.363,-85.449,36.133,34.668,-17.578,24.414
1586550067.367,15.137,34.18,33.203,11.23,-43.945
1586550067.371,155.273,37.109,28.32,60.059,15.625
1586550067.375,58.594,32.227,31.738,33.691,-15.625
1586550067.379,-90.82,29.297,33.691,-19.043,-30.762
1586550067.383,-32.715,29.785,33.691,5.859,20.508
1586550067.386,135.742,28.32,33.691,75.684,88.379
1586550067.39,107.91,31.25,34.668,67.383,128.418
1586550067.394,-53.223,34.668,35.645,-2.441,93.262
1586550067.398,-47.852,30.762,35.156,-7.324,45.41
1586550067.402,90.332,27.344,33.203,39.551,54.199
1586550067.406,136.23,29.297,33.203,64.941,84.473
1586550067.41,-25.391,31.738,36.133,10.254,45.898
1586550067.414,-64.453,34.18,34.668,-18.555,-6.348
1586550067.418,64.453,30.762,33.203,32.715,-9.766
1586550067.422,158.691,30.762,35.645,71.777,15.625
1586550067.426,10.742,29.297,35.156,18.066,-6.836
1586550067.429,-99.121,24.414,35.645,-19.531,-8.789
1586550067.433,-6.348,23.926,35.645,13.184,26.367
1586550067.437,135.254,25.879,34.18,62.5,34.18
1586550067.441,46.875,28.32,36.621,37.109,34.18
1586550067.445,-98.633,27.344,35.645,-13.672,45.898
1586550067.449,-37.109,26.855,35.645,-4.883,8.789
1586550067.453,124.023,28.809,36.133,49.805,27.344
1586550067.457,104.98,28.32,32.715,51.27,23.926
1586550067.461,-66.406,29.785,32.715,-4.395,-12.207
1586550067.465,-68.848,28.32,35.156,-14.16,20.02
1586550067.469,83.008,28.809,35.156,32.715,-4.395
1586550067.472,144.043,30.762,36.621,63.965,5.371
1586550067.476,-22.461,29.297,38.574,12.695,16.113
1586550067.48,-81.543,30.762,36.621,-16.602,-26.855
1586550067.484,34.668,30.273,33.691,29.785,5.371
1586550067.488,153.32,27.832,31.738,72.754,77.148
1586550067.492,29.785,30.273,32.227,22.949,94.238
1586550067.496,-78.613,31.738,33.203,-23.438,46.875
1586550067.5,9.766,31.738,33.203,5.859,43.457
1586550067.504,151.855,29.785,31.25,54.199,36.133
1586550067.508,78.125,29.297,29.785,39.551,38.086
1586550067.511,-89.355,27.344,34.18,-13.184,44.922
1586550067.515,-52.246,28.809,34.18,-6.348,6.836
1586550067.519,108.398,30.762,32.227,57.617,-28.32
1586550067.523,122.559,32.227,32.227,61.035,14.648
1586550067.527,-52.246,30.273,35.645,-1.465,6.836
1586550067.531,-77.148,27.344,36.621,-13.672,18.066
1586550067.535,62.988,30.762,34.668,32.715,41.016
1586550067.539,139.648,34.18,35.156,65.918,13.672
1586550067.543,-7.812,36.133,35.645,21.484,9.766
1586550067.547,-81.543,36.133,35.645,-8.301,13.184
1586550067.551,20.02,32.227,37.598,21.973,-23.926
1586550067.554,151.367,31.738,35.645,72.266,11.23
1586550067.558,48.34,34.668,35.156,23.926,35.645
1586550067.562,-81.055,33.691,38.086,-34.18,16.113
1586550067.566,-6.836,33.203,37.109,-5.371,7.324
1586550067.57,154.785,33.691,36.133,52.246,-14.16
1586550067.574,100.098,31.738,35.156,45.41,32.227
1586550067.578,-66.406,33.691,36.133,-17.578,70.312
1586550067.582,-48.34,35.645,35.156,-22.461,28.32
1586550067.586,91.797,33.691,33.203,37.109,-9.277
1586550067.59,124.023,33.691,34.668,59.57,4.883
1586550067.594,-31.738,38.086,36.621,6.348,0
1586550067.597,-59.082,36.133,33.691,-12.695,18.066
1586550067.601,69.336,33.203,30.273,22.461,37.598
1586550067.605,154.785,31.738,35.645,60.547,53.711
1586550067.609,9.277,29.297,38.086,15.625,49.316
1586550067.613,-83.008,31.738,31.738,-24.902,43.457
1586550067.617,20.508,33.203,29.297,18.066,57.617
1586550067.621,156.25,31.25,32.715,69.824,27.344
1586550067.625,50.781,30.273,35.645,37.598,8.301
1586550067.629,-89.355,29.297,35.645,-20.996,-2.93
1586550067.633,-29.785,28.32,28.809,-15.625,22.949
1586550067.636,126.953,29.297,26.367,46.387,22.461
1586550067.64,107.422,31.25,31.25,44.434,16.113
1586550067.644,-50.293,31.25,34.668,-13.672,36.133
1586550067.648,-41.016,30.762,36.133,-14.648,43.457
1586550067.652,101.074,30.762,35.156,36.133,21.973
1586550067.656,147.461,30.762,34.18,66.406,-18.555
1586550067.66,-25.879,28.809,37.109,16.602,-43.945
1586550067.664,-89.844,28.809,38.086,-12.695,-4.883
1586550067.668,41.992,26.855,35.156,30.273,23.926
1586550067.672,157.227,26.367,31.25,73.242,30.762
1586550067.676,30.273,28.32,31.738,25.391,39.062
1586550067.679,-66.895,29.785,35.645,-22.949,-21.484
1586550067.683,16.113,30.762,34.668,3.906,-3.418
1586550067.687,157.715,30.273,31.738,64.941,79.59
1586550067.691,87.402,32.227,31.738,42.969,24.902
1586550067.695,-68.359,33.203,34.18,-12.207,28.32
1586550067.699,-30.273,30.762,35.156,-3.418,40.039
1586550067.703,119.141,30.762,31.738,44.434,-5.859
1586550067.707,117.188,34.668,31.738,55.664,0.977
1586550067.711,-47.852,36.133,34.18,8.301,-5.859
1586550067.715,-56.152,33.203,35.645,-0.488,-29.297
1586550067.719,90.82,32.715,34.668,52.734,-3.418
1586550067.722,151.367,35.645,32.715,74.707,22.949
1586550067.726,-11.719,35.645,33.691,12.695,23.438
1586550067.73,-82.031,31.738,33.691,-14.648,23.438
1586550067.734,39.551,31.25,33.203,20.02,-61.523
1586550067.738,155.762,33.203,32.227,69.824,12.695
1586550067.742,25.879,33.203,32.227,36.133,89.844
1586550067.746,-87.402,33.691,31.25,-20.508,10.254
1586550067.75,-7.812,34.18,29.297,-1.465,27.344
1586550067.754,144.531,34.668,31.738,59.082,62.988
1586550067.758,85.938,35.645,31.738,42.969,-0.488
1586550067.761,-73.242,34.18,29.785,-14.16,-44.434
1586550067.765,-38.574,32.227,30.273,-14.648,17.578
1586550067.769,110.352,33.691,30.273,53.711,37.598
1586550067.773,122.07,33.691,33.691,90.332,28.809
1586550067.777,-47.363,31.738,38.574,18.555,2.441
1586550067.781,-69.824,33.691,36.621,-19.043,22.461
1586550067.785,61.035,31.25,31.738,23.926,64.941
1586550067.789,145.996,30.273,31.25,55.176,96.68
1586550067.793,9.277,36.133,35.156,15.625,88.379
1586550067.797,-70.801,37.598,37.109,0.488,28.809
1586550067.801,35.156,37.598,36.621,21.973,13.672
1586550067.804,161.133,35.645,33.203,50.781,4.395
1586550067.808,55.664,33.691,33.203,28.32,5.371
1586550067.812,-80.566,33.691,36.621,-13.184,26.367
1586550067.816,-27.344,34.18,35.645,4.883,-0.977
1586550067.82,128.906,31.738,34.18,63.477,-2.93
1586550067.824,100.586,33.203,34.668,57.617,12.695
1586550067.828,-57.129,35.645,37.598,-0.977,-10.254
1586550067.832,-45.898,31.25,37.598,-2.93,4.883
1586550067.836,107.422,33.203,34.18,51.27,42.969
1586550067.84,146.484,35.156,33.203,67.383,62.988
1586550067.844,-37.109,34.668,34.668,8.301,41.504
1586550067.847,-77.148,35.156,36.133,-4.395,9.766
1586550067.851,48.828,32.715,37.109,41.016,11.719
1586550067.855,140.137,31.25,34.668,76.66,52.246
1586550067.859,7.812,31.738,37.109,29.785,88.379
1586550067.863,-90.332,30.762,41.504,-19.531,38.574
1586550067.867,1.465,28.809,39.062,12.207,65.918
1586550067.871,139.648,26.367,36.621,69.336,97.656
1586550067.875,58.105,30.273,34.18,43.457,73.73
1586550067.879,-78.613,33.691,33.203,-18.066,23.438
1586550067.883,-22.949,31.738,34.18,-5.371,-2.93
1586550067.886,129.883,30.762,34.668,61.523,-4.395
1586550067.89,109.863,33.691,33.203,57.129,21.973
1586550067.894,-65.43,32.227,33.203,-4.395,50.293
1586550067.898,-65.918,30.273,35.156,-2.93,37.109
1586550067.902,74.707,31.738,32.227,42.969,41.016
1586550067.906,126.465,32.227,32.227,62.5,38.574
1586550067.91,-26.855,33.203,33.203,13.672,28.32
1586550067.914,-77.637,32.715,29.785,-11.23,15.625
1586550067.918,48.828,32.227,28.809,15.625,-52.246
1586550067.922,169.434,31.738,29.297,57.617,-8.789
1586550067.926,32.227,32.715,32.227,20.02,64.453
1586550067.929,-89.844,33.691,32.227,-24.902,31.738
1586550067.933,-0.977,32.715,32.715,7.812,36.133
1586550067.937,152.832,32.715,34.18,70.312,85.449
1586550067.941,78.125,32.715,34.668,46.387,32.715
1586550067.945,-68.848,35.645,35.156,-8.789,40.039
1586550067.949,-22.949,37.109,36.133,6.836,52.734
1586550067.953,127.441,33.691,36.621,64.453,35.156
1586550067.957,136.719,35.156,35.645,72.266,76.66
1586550067.961,-43.457,39.062,36.133,8.789,33.691
1586550067.965,-69.336,35.645,36.133,-6.348,26.855
1586550067.969,75.195,34.18,31.25,40.039,54.688
1586550067.972,145.996,35.645,29.785,66.895,81.543
1586550067.976,-20.02,34.18,33.203,9.277,93.75
1586550067.98,-92.285,34.18,35.645,-23.438,32.715
1586550067.984,36.621,35.156,34.668,23.926,11.719
1586550067.988,166.504,35.156,31.738,69.824,20.02
1586550067.992,47.363,36.133,35.645,36.621,7.324
1586550067.996,-87.891,33.691,38.086,-12.207,20.02
1586550068,-19.043,33.691,34.18,-1.465,-22.461
1586550068.004,128.418,35.645,31.25,49.316,18.066
1586550068.008,71.777,32.715,30.762,35.156,66.895
1586550068.011,-79.59,36.621,31.25,-18.066,59.57
1586550068.015,-46.875,35.156,31.738,-7.324,1.953
1586550068.019,104.492,28.809,32.227,41.016,-41.016
1586550068.023,127.93,31.738,34.18,55.664,24.902
1586550068.027,-37.109,32.227,35.645,1.953,-27.832
1586550068.031,-68.848,29.785,35.156,-23.926,-79.102
1586550068.035,66.895,30.762,34.18,31.25,27.832
1586550068.039,162.109,33.203,35.156,74.219,44.922
1586550068.043,11.719,31.25,38.574,25.391,-1.465
1586550068.047,-82.031,29.785,36.621,-7.324,28.32
1586550068.051,17.578,34.668,34.18,18.555,22.949
1586550068.054,149.414,34.18,34.668,62.5,-30.762
1586550068.058,49.316,37.109,32.715,26.855,49.316
1586550068.062,-77.637,41.016,35.156,-31.25,42.969
1586550068.066,-9.766,37.109,35.156,-15.625,-21.973
1586550068.07,144.531,35.156,33.203,47.852,42.969
1586550068.074,104.004,34.668,32.715,46.875,6.836
1586550068.078,-61.523,35.156,31.738,-14.648,0.488
1586550068.082,-52.734,35.156,33.203,-4.395,8.301
1586550068.086,90.332,37.109,33.203,45.898,-15.137
1586550068.09,140.625,37.598,31.738,54.688,-4.883
1586550068.094,-28.809,38.086,33.691,8.301,-17.578
1586550068.097,-76.172,37.598,37.109,-2.441,20.508
1586550068.101,54.199,36.621,37.598,33.203,-5.371
1586550068.105,154.297,35.645,34.668,59.57,-0.488
1586550068.109,14.16,32.715,33.691,17.09,31.738
1586550068.113,-92.773,33.691,34.18,-20.508,20.508
1586550068.117,-4.883,33.691,30.762,3.906,41.992
1586550068.121,149.414,29.297,28.809,61.523,24.902
1586550068.125,58.594,28.809,33.691,36.621,45.898
1586550068.129,-95.215,31.25,32.715,-19.043,26.855
1586550068.133,-34.668,32.715,32.227,-1.465,3.418
1586550068.136,119.141,32.715,33.203,47.363,35.645
1586550068.14,111.816,30.273,30.273,50.293,60.547
1586550068.144,-60.059,30.273,33.691,-6.348,39.062
1586550068.148,-63.965,33.691,36.133,-13.184,5.859
1586550068.152,92.773,34.18,35.156,38.086,11.23
1586550068.156,154.785,33.691,33.203,59.57,24.902
1586550068.16,-12.695,33.691,31.25,5.371,28.32
1586550068.164,-77.637,33.691,34.668,-31.25,0.977
1586550068.168,43.457,31.25,37.598,11.23,68.359
1586550068.172,159.18,31.738,34.18,62.012,20.508
1586550068.176,24.902,34.18,33.203,22.949,-39.062
1586550068.179,-100.586,30.762,36.621,-9.277,2.441
1586550068.183,-21.973,31.25,34.18,17.09,7.812
1586550068.187,128.906,33.203,29.785,55.664,64.941
1586550068.191,74.219,33.203,29.785,29.785,53.223
1586550068.195,-81.543,33.203,30.273,-23.926,17.09
1586550068.199,-61.035,30.762,29.785,-14.16,54.199
1586550068.203,96.191,30.273,28.32,40.527,110.84
1586550068.207,110.352,33.691,30.273,51.27,157.715
1586550068.211,-62.5,34.18,32.715,-6.348,92.285
1586550068.215,-69.824,33.691,31.25,-17.578,41.016
1586550068.219,76.66,35.645,30.273,38.086,55.664
1586550068.222,159.668,31.738,31.738,69.824,52.734
1586550068.226,0.977,30.762,35.645,8.301,74.219
1586550068.23,-83.984,31.738,32.227,-30.273,58.594
1586550068.234,21.973,30.762,29.297,9.766,77.148
1586550068.238,153.809,33.203,30.762,68.359,71.777
1586550068.242,45.898,32.227,32.715,35.156,-3.418
1586550068.246,-87.891,31.738,32.715,-19.043,22.949
1586550068.25,-14.16,31.738,27.344,4.883,0.977
1586550068.254,137.207,29.297,27.832,64.941,2.93
1586550068.258,94.727,31.738,33.203,51.27,-20.02
1586550068.261,-66.406,33.203,33.691,-10.254,-32.715
1586550068.265,-51.758,33.203,33.203,-16.602,23.438
1586550068.269,103.516,31.738,34.18,35.156,69.336
1586550068.273,145.996,33.203,35.645,56.152,17.578
1586550068.277,-27.344,33.691,36.621,-0.977,-29.297
1586550068.281,-76.172,32.227,35.156,-15.625,37.109
1586550068.285,53.223,33.203,32.227,31.738,73.73
1586550068.289,150.391,29.785,32.227,73.242,32.227
1586550068.293,8.301,29.785,33.203,28.809,43.457
1586550068.297,-82.031,32.227,33.203,-11.719,11.719
1586550068.301,12.695,31.25,36.621,24.414,-35.645
1586550068.304,150.391,27.344,35.645,72.266,-21.484
1586550068.308,64.941,27.832,33.203,34.18,-23.438
1586550068.312,-72.754,28.809,34.18,-9.277,-19.043
1586550068.316,-17.578,29.785,36.133,7.324,-20.508
1586550068.32,140.625,33.203,35.645,56.641,12.207
1586550068.324,118.164,34.18,37.598,56.641,29.297
1586550068.328,-58.105,33.691,39.551,0,-0.977
1586550068.332,-50.293,34.18,35.645,-5.859,10.254
1586550068.336,99.609,33.691,37.598,43.945,35.645
1586550068.34,148.926,33.691,41.504,61.523,60.059
1586550068.344,-6.348,36.133,38.574,-1.465,64.453
1586550068.347,-73.242,35.645,33.691,-27.344,19.531
1586550068.351,41.016,33.691,33.203,8.301,-26.367
1586550068.355,161.133,33.203,35.645,48.828,7.324
1586550068.359,35.156,31.738,38.574,16.113,16.602
1586550068.363,-70.801,31.25,36.133,-17.578,49.316
1586550068.367,7.812,31.25,32.715,18.555,21.484
1586550068.371,151.367,31.25,31.738,73.242,-6.836
1586550068.375,78.613,33.203,35.156,42.969,13.672
1586550068.379,-66.895,36.621,35.645,-10.254,26.367
1586550068.383,-19.531,36.621,35.156,-1.465,25.879
1586550068.386,130.859,34.18,33.691,50.293,2.93
1586550068.39,121.582,35.156,32.227,65.918,14.16
1586550068.394,-48.34,37.109,34.18,6.836,11.719
1586550068.398,-58.105,33.203,34.668,-8.789,8.789
1586550068.402,82.031,31.738,33.691,51.27,-3.906
1586550068.406,157.715,33.691,31.25,74.219,43.457
1586550068.41,-8.301,30.762,34.668,10.254,46.875
1586550068.414,-75.684,30.762,35.156,-20.508,-25.879
1586550068.418,37.598,32.227,29.785,9.277,4.883
1586550068.422,149.902,28.809,32.715,63.477,47.852
1586550068.426,34.668,30.762,34.668,26.367,57.617
1586550068.429,-78.125,33.203,31.738,-33.691,57.129
1586550068.433,-6.836,33.691,30.762,-8.301,-4.395
1586550068.437,145.02,33.203,29.297,50.293,34.668
1586550068.441,86.426,30.762,28.809,37.109,56.641
1586550068.445,-81.055,33.691,28.809,-21.973,17.578
1586550068.449,-53.711,33.203,30.762,-15.625,29.297
1586550068.453,102.539,31.738,32.715,38.086,5.371
1586550068.457,117.676,32.715,33.203,55.176,23.438
1586550068.461,-53.223,33.691,35.645,5.371,45.898
1586550068.465,-70.312,35.645,37.109,-11.719,37.109
1586550068.469,60.547,35.156,34.18,40.527,2.93
1586550068.472,136.23,33.691,31.25,66.895,-15.625
1586550068.476,1.465,35.645,30.273,12.207,-19.531
1586550068.48,-63.477,37.109,28.809,-19.043,-0.977
1586550068.484,27.832,36.621,28.32,15.137,24.414
1586550068.488,145.02,35.156,30.273,63.477,20.508
1586550068.492,33.691,33.691,31.25,26.855,-37.109
1586550068.496,-103.027,34.668,31.738,-19.043,-58.594
1586550068.5,-30.762,33.203,32.227,-0.488,20.996
1586550068.504,131.348,32.227,32.227,53.223,8.301
1586550068.508,99.609,29.785,35.645,50.781,17.578
1586550068.511,-65.918,31.25,35.156,4.395,67.383
1586550068.515,-63.965,33.691,33.203,3.418,9.766
1586550068.519,85.938,32.227,34.668,40.039,-25.391
1586550068.523,140.137,32.715,35.156,60.547,21.484
1586550068.527,-23.438,33.691,36.133,6.348,36.133
1586550068.531,-62.5,35.645,33.691,-17.578,12.695
1586550068.535,63.965,34.18,31.25,26.367,-40.039
1586550068.539,158.691,27.832,33.203,75.195,-9.277
1586550068.543,3.906,29.785,36.621,33.691,2.441
1586550068.547,-92.285,34.668,32.227,-14.16,-12.207
1586550068.551,13.672,34.668,30.762,12.695,17.578
1586550068.554,146.484,32.715,33.203,63.477,46.875
1586550068.558,57.617,31.738,33.691,30.273,86.426
1586550068.562,-83.984,34.18,31.25,-30.762,22.461
1586550068.566,-27.344,35.156,29.297,-8.789,-2.441
1586550068.57,123.535,32.715,30.273,55.664,-4.883
1586550068.574,105.469,31.25,31.25,54.688,-52.734
1586550068.578,-56.152,31.25,32.227,-3.906,-30.762
1586550068.582,-57.129,31.738,34.668,-10.254,24.902
1586550068.586,81.543,31.738,34.18,40.039,49.805
1586550068.59,136.23,34.18,30.762,64.453,21.484
1586550068.594,-23.926,33.691,32.715,0.977,-18.066
1586550068.597,-87.891,32.227,33.203,-28.809,-21.973
1586550068.601,26.855,33.203,29.785,17.578,-21.484
1586550068.605,146.973,32.227,31.25,74.219,21.484
1586550068.609,17.09,30.273,35.156,40.527,41.504
1586550068.613,-90.332,32.715,34.668,-9.277,49.316
1586550068.617,0.488,33.203,34.18,15.137,72.754
1586550068.621,141.602,28.809,31.738,62.5,76.172
1586550068.625,76.172,27.832,30.273,33.691,-17.578
1586550068.629,-78.613,30.762,31.738,-16.602,-30.273
1586550068.633,-39.551,32.715,33.203,-7.324,88.867
1586550068.636,116.699,34.18,32.227,41.504,80.078
1586550068.64,125,35.156,29.297,52.246,58.594
1586550068.644,-43.945,35.156,30.273,-3.906,83.496
1586550068.648,-76.66,33.691,31.25,-17.578,66.895
1586550068.652,59.57,32.715,29.785,31.25,7.324
1586550068.656,143.066,34.668,28.809,59.57,28.32
1586550068.66,-12.695,32.715,30.273,4.883,23.926
1586550068.664,-87.402,30.273,29.297,-23.438,-33.691
1586550068.668,25.391,30.273,27.832,16.602,25.879
1586550068.672,158.203,29.297,28.32,71.777,50.781
1586550068.676,45.41,32.227,30.273,41.016,30.762
1586550068.679,-75.195,33.691,29.297,-22.461,34.668
1586550068.683,-4.395,32.227,29.297,-5.859,9.766
1586550068.687,143.066,33.203,28.32,54.688,21.973
1586550068.691,97.656,35.645,28.32,43.457,77.637
1586550068.695,-74.219,37.598,29.297,-14.648,36.621
1586550068.699,-57.129,33.203,30.762,-5.859,7.324
1586550068.703,92.285,28.809,33.203,61.035,3.418
1586550068.707,133.301,32.715,32.227,69.824,-0.488
1586550068.711,-22.949,34.668,32.227,5.859,-17.578
1586550068.715,-56.641,32.227,31.738,-18.066,-18.066
1586550068.719,74.219,31.25,27.832,20.02,45.898
1586550068.722,149.902,32.715,27.832,62.5,32.715
1586550068.726,1.465,31.25,31.25,20.02,8.789
1586550068.73,-76.172,31.738,29.297,-14.648,-14.648
1586550068.734,14.648,31.738,27.344,16.113,15.625
1586550068.738,148.926,29.785,30.273,67.871,90.332
1586550068.742,59.082,33.203,33.203,41.504,48.34
1586550068.746,-77.148,36.133,34.18,-11.719,-4.395
1586550068.75,-12.695,36.133,35.645,6.348,14.648
1586550068.754,137.695,34.668,34.18,70.312,10.254
1586550068.758,108.398,34.18,32.715,57.129,7.324
1586550068.761,-51.758,34.18,33.203,-5.859,37.598
1586550068.765,-48.828,33.691,35.645,1.953,41.016
1586550068.769,91.797,31.738,39.062,54.199,37.598
1586550068.773,151.367,30.762,37.598,68.848,0
1586550068.777,-6.836,33.691,36.133,13.672,8.789
1586550068.781,-64.941,29.785,36.133,-10.742,30.762
1586550068.785,59.082,27.832,35.645,27.832,19.043
1586550068.789,168.945,31.25,35.156,66.406,86.914
1586550068.793,32.715,26.367,37.598,25.391,61.035
1586550068.797,-81.055,23.438,38.086,-12.207,12.695
1586550068.801,-7.324,25.879,34.18,10.254,17.09
1586550068.804,128.906,29.297,29.297,62.5,18.066
1586550068.808,52.734,28.32,29.785,43.457,20.508
1586550068.812,-86.914,26.367,31.738,-9.277,31.25
1586550068.816,-26.367,26.855,31.738,2.93,48.34
1586550068.82,124.512,26.367,30.762,57.617,16.602
1586550068.824,112.793,26.855,34.18,63.477,47.852
1586550068.828,-52.246,26.855,36.133,-0.977,32.715
1586550068.832,-56.152,27.344,33.691,-11.23,16.602
1586550068.836,83.984,27.832,31.738,35.156,18.066
1586550068.84,148.926,26.367,34.18,60.547,5.371
1586550068.844,-12.695,27.344,33.203,10.254,57.129
1586550068.847,-84.961,26.855,30.273,-23.926,-9.277
1586550068.851,37.109,28.809,30.273,15.625,-35.645
1586550068.855,160.156,31.738,32.227,72.754,39.062
1586550068.859,35.645,32.227,33.203,35.645,2.441
1586550068.863,-86.426,31.738,32.715,-16.602,12.207
1586550068.867,-11.719,28.32,32.227,14.16,74.219
1586550068.871,137.207,28.32,32.227,70.801,66.895
1586550068.875,94.727,30.762,33.691,47.852,62.5
1586550068.879,-53.711,31.738,33.203,-20.508,24.414
1586550068.883,-49.316,30.273,31.738,-20.02,19.531
1586550068.886,93.262,28.809,31.25,38.086,33.691
1586550068.89,121.094,31.25,34.18,62.988,23.926
1586550068.894,-49.805,32.715,35.156,4.395,44.434
1586550068.898,-76.66,33.203,34.668,-10.742,17.578
1586550068.902,58.105,35.645,35.156,37.598,-29.785
1586550068.906,142.09,36.133,33.691,65.918,-27.344
1586550068.91,-3.906,37.598,32.227,19.043,14.16
1586550068.914,-80.078,37.109,30.762,-17.09,45.898
1586550068.918,24.902,33.691,31.738,16.113,18.555
1586550068.922,150.391,32.227,32.715,68.848,27.832
1586550068.926,45.41,32.227,34.18,45.41,28.32
1586550068.929,-81.055,30.273,34.668,-9.766,-19.531
1586550068.933,-18.066,32.715,33.203,-1.465,-15.137
1586550068.937,130.859,30.762,34.668,54.199,15.137
1586550068.941,90.82,26.855,35.156,43.945,-25.391
1586550068.945,-74.219,27.832,35.645,-20.02,-61.523
1586550068.949,-61.523,28.32,35.645,-19.531,41.992
1586550068.953,88.379,27.832,33.203,41.504,76.66
1586550068.957,131.348,27.344,32.227,55.176,53.223
1586550068.961,-27.344,30.273,33.203,-3.906,45.898
1586550068.965,-71.777,30.273,35.156,-14.648,-22.461
1586550068.969,59.57,28.809,35.156,33.691,18.555
1586550068.972,158.203,28.809,32.227,66.895,41.992
1586550068.976,12.207,28.809,32.227,24.902,13.184
1586550068.98,-91.309,29.785,32.227,-17.09,39.551
1586550068.984,6.836,28.809,32.227,10.254,27.832
1586550068.988,159.668,29.297,31.25,57.129,4.395
1586550068.992,68.848,29.785,33.203,39.551,39.551
1586550068.996,-79.102,28.32,36.133,-6.348,61.523
1586550069,-25.391,30.762,34.668,-3.906,-28.32
1586550069.004,134.766,31.738,35.156,55.176,-35.156
1586550069.008,111.328,29.785,34.18,51.758,35.645
1586550069.011,-66.895,30.273,32.715,-1.953,8.789
1586550069.015,-55.664,30.273,32.227,-10.254,-3.906
1586550069.019,84.961,28.809,32.715,35.645,3.906
1586550069.023,130.859,29.297,35.645,64.453,61.035
1586550069.027,-19.531,27.344,37.598,8.301,37.109
1586550069.031,-69.336,24.902,38.574,-26.855,10.742
1586550069.035,51.27,25.391,36.133,7.812,-11.23
1586550069.039,162.109,27.832,32.715,53.711,12.207
1586550069.043,33.203,30.762,34.668,21.484,46.387
1586550069.047,-74.707,29.297,36.133,-16.113,53.711
1586550069.051,-2.441,26.855,33.691,1.953,61.523
1586550069.054,146.973,29.297,34.18,51.758,52.734
1586550069.058,85.938,33.203,36.133,36.621,27.344
1586550069.062,-65.43,32.227,36.133,-17.09,-22.949
1586550069.066,-28.809,30.273,38.086,-4.883,-16.113
1586550069.07,123.535,28.809,38.086,49.805,69.824
1586550069.074,125.488,30.273,35.645,55.664,80.566
1586550069.078,-41.992,33.203,33.691,-2.441,-55.664
1586550069.082,-57.617,32.715,32.715,-10.254,-48.34
1586550069.086,76.172,33.691,33.203,42.48,12.207
1586550069.09,158.203,36.621,31.25,63.965,-18.555
1586550069.094,1.953,34.18,32.715,15.625,24.414
1586550069.097,-77.148,35.645,34.18,-14.16,58.105
1586550069.101,40.527,38.086,31.25,6.836,72.266
1586550069.105,159.18,35.156,31.25,63.965,50.781
1586550069.109,41.992,35.645,36.133,34.668,3.906
1586550069.113,-72.266,39.551,36.133,-16.602,15.137
1586550069.117,-5.859,37.109,37.109,2.93,35.156
1586550069.121,153.809,35.156,35.156,48.828,39.062
1586550069.125,110.84,38.574,36.621,45.41,-0.977
1586550069.129,-63.965,39.551,39.551,-11.23,4.395
1586550069.133,-34.18,35.156,33.691,0,18.066
1586550069.136,128.418,34.668,28.32,58.594,-6.348
1586550069.14,148.438,34.18,30.273,62.012,64.453
1586550069.144,-27.344,31.25,35.156,-1.953,52.246
1586550069.148,-71.777,32.227,32.227,-21.484,32.715
1586550069.152,48.828,34.18,31.25,23.926,86.426
1586550069.156,141.113,32.715,34.18,67.383,62.5
1586550069.16,6.836,33.203,36.133,21.973,34.18
1586550069.164,-72.754,33.203,34.18,-21.484,33.691
1586550069.168,19.531,30.762,31.738,13.184,15.625
1586550069.172,144.043,33.691,34.18,74.707,26.855
1586550069.176,53.223,32.227,36.621,43.457,71.777
1586550069.179,-84.473,29.785,37.109,-11.719,62.012
1586550069.183,-29.297,34.18,40.039,5.859,43.457
1586550069.187,132.324,37.109,38.574,51.758,32.227
1586550069.191,109.375,36.621,33.203,33.203,-8.301
1586550069.195,-65.918,38.086,36.133,-22.949,-62.5
1586550069.199,-57.617,36.133,36.621,-19.531,-51.758
1586550069.203,92.773,36.621,32.227,31.738,32.715
1586550069.207,132.812,38.086,32.715,54.199,60.059
1586550069.211,-33.203,33.203,38.086,0,24.414
1586550069.215,-77.148,34.18,37.598,-15.137,15.625
1586550069.219,53.223,39.551,32.715,31.738,30.273
1586550069.222,161.133,36.621,34.18,63.477,-1.953
1586550069.226,30.762,37.109,34.18,11.23,12.207
1586550069.23,-69.336,38.574,32.715,-28.809,26.367
1586550069.234,17.09,37.598,37.109,9.277,67.383
1586550069.238,149.414,36.621,40.039,67.871,75.195
1586550069.242,59.57,35.645,39.062,41.504,17.09
1586550069.246,-91.797,34.18,36.133,-14.16,-0.488
1586550069.25,-39.551,32.715,34.668,-3.906,-6.836
1586550069.254,119.629,35.156,35.156,50.781,51.758
1586550069.258,106.934,36.621,33.691,56.641,83.008
1586550069.261,-64.941,35.156,33.691,-5.859,1.465
1586550069.265,-70.312,34.18,34.18,-12.695,-0.977
1586550069.269,79.102,33.203,32.227,41.504,76.66
1586550069.273,138.672,31.25,30.762,68.359,61.035
1586550069.277,-24.414,30.273,33.203,18.066,6.836
1586550069.281,-78.125,31.25,37.109,-14.648,1.953
1586550069.285,39.062,32.715,34.668,15.137,-22.461
1586550069.289,156.738,35.156,32.227,58.594,-26.367
1586550069.293,29.297,36.621,35.645,24.414,-3.418
1586550069.297,-94.238,37.109,34.18,-21.484,12.695
1586550069.301,-10.742,37.109,30.762,-0.488,31.25
1586550069.304,147.461,35.645,31.738,50.293,75.684
1586550069.308,88.379,36.133,33.203,37.109,81.055
1586550069.312,-75.195,35.645,35.156,-20.508,54.688
1586550069.316,-47.852,32.227,35.156,-10.254,-9.277
1586550069.32,108.398,29.785,28.809,52.734,-19.043
1586550069.324,124.512,29.785,27.344,59.57,55.664
1586550069.328,-51.27,29.785,31.25,-0.977,33.203
1586550069.332,-73.242,31.25,32.715,-10.254,31.25
1586550069.336,70.312,31.25,34.18,35.156,64.941
1586550069.34,148.438,30.273,31.25,63.477,69.336
1586550069.344,-1.465,32.227,28.809,11.719,37.598
1586550069.347,-83.008,30.762,32.227,-19.531,-27.344
1586550069.351,18.555,26.367,33.691,17.09,-33.203
1586550069.355,148.926,27.344,30.273,74.219,-28.809
1586550069.359,40.039,28.809,32.715,45.898,7.324
1586550069.363,-81.543,27.832,34.668,-12.695,48.34
1586550069.367,-6.836,31.738,35.156,12.207,16.113
1586550069.371,142.578,35.156,37.109,68.848,-7.324
1586550069.375,95.703,31.25,35.645,56.641,3.906
1586550069.379,-74.707,28.809,33.691,-2.93,-2.93
1586550069.383,-54.199,30.273,31.25,-8.301,3.906
1586550069.386,104.492,26.367,29.785,41.992,-26.855
1586550069.39,134.766,25.391,31.25,62.5,-44.922
1586550069.394,-28.809,27.344,32.227,4.395,-39.551
1586550069.398,-62.5,29.297,30.762,-18.555,-90.332
1586550069.402,53.711,32.227,26.855,30.273,-43.457
1586550069.406,144.043,32.227,31.25,71.289,19.531
1586550069.41,2.93,34.18,35.156,23.926,10.254
1586550069.414,-85.938,32.715,33.203,-16.602,6.348
1586550069.418,18.555,31.25,30.762,15.137,38.574
1586550069.422,158.203,31.738,28.809,66.895,54.199
1586550069.426,67.871,30.762,30.273,45.41,41.016
1586550069.429,-70.312,30.762,29.785,0,18.555
1586550069.433,-23.438,27.832,31.25,16.113,37.598
1586550069.437,132.812,26.855,30.762,63.965,58.594
1586550069.441,111.816,31.738,30.273,56.641,37.109
1586550069.445,-65.918,33.203,34.18,-4.395,13.672
1586550069.449,-61.523,32.227,33.203,-9.277,49.316
1586550069.453,84.961,32.715,34.668,44.434,69.824
1586550069.457,141.602,35.156,35.156,65.43,51.758
1586550069.461,-19.531,34.18,35.156,14.16,12.695
1586550069.465,-78.613,33.203,36.133,-11.23,21.973
1586550069.469,42.969,33.691,34.18,28.32,47.852
1586550069.472,144.043,34.18,30.273,74.219,56.152
1586550069.476,11.719,32.227,33.691,25.391,64.453
1586550069.48,-91.797,31.25,38.086,-21.484,41.016
1586550069.484,0.977,34.18,35.645,9.766,-15.137
1586550069.488,148.438,32.715,33.203,62.988,13.672
1586550069.492,70.312,30.762,32.715,40.039,36.621
1586550069.496,-74.707,32.227,31.738,-20.02,-0.488
1586550069.5,-39.551,31.738,35.156,-2.93,36.133
1586550069.504,112.793,34.668,32.715,46.875,86.914
1586550069.508,124.512,36.621,31.25,44.922,23.926
1586550069.511,-34.668,35.156,36.621,-7.812,-62.988
1586550069.515,-48.34,34.668,37.109,-16.113,-65.43
1586550069.519,81.543,32.715,36.133,34.668,11.719
1586550069.523,149.902,33.691,36.621,67.383,-18.066
1586550069.527,-8.789,34.668,40.039,17.578,-23.926
1586550069.531,-83.008,31.738,41.016,-12.695,1.465
1586550069.535,24.414,27.344,37.598,25.879,-9.277
1586550069.539,141.113,27.344,36.621,68.848,26.855
1586550069.543,25.879,29.785,38.086,28.32,73.73
1586550069.547,-101.074,30.762,37.598,-19.043,41.016
1586550069.551,-26.855,31.25,35.156,-1.953,49.805
1586550069.554,135.742,31.738,35.156,54.199,96.191
1586550069.558,88.379,35.645,38.086,45.41,25.391
1586550069.562,-76.172,35.645,39.062,-15.137,-26.855
1586550069.566,-54.688,35.645,37.598,-5.859,-32.227
1586550069.57,103.027,37.109,35.645,48.828,34.18
1586550069.574,128.906,37.598,37.598,58.594,59.082
1586550069.578,-41.016,38.574,38.086,5.371,23.926
1586550069.582,-73.242,37.109,37.109,-11.23,-2.93
1586550069.586,63.477,37.109,37.598,40.039,9.277
1586550069.59,148.438,38.086,35.645,70.801,34.18
1586550069.594,-5.371,39.062,36.133,14.16,68.359
1586550069.597,-95.215,39.062,38.086,-18.066,32.715
1586550069.601,13.184,35.645,36.621,16.602,-38.086
1586550069.605,164.062,36.133,34.18,71.289,-12.695
1586550069.609,60.547,38.086,35.645,42.48,39.551
1586550069.613,-84.473,37.598,40.039,-9.277,36.133
1586550069.617,-26.855,37.109,39.551,6.348,23.438
1586550069.621,119.629,36.621,36.133,62.5,33.203
1586550069.625,90.82,33.691,38.086,61.523,17.09
1586550069.629,-67.383,35.645,38.086,-0.488,5.371
1586550069.633,-58.594,36.621,34.18,3.418,53.223
1586550069.636,94.238,34.18,34.18,56.152,4.883
1586550069.64,145.996,35.156,34.668,69.824,10.254
1586550069.644,-16.113,35.645,37.109,12.207,21.484
1586550069.648,-65.43,35.156,38.086,-12.695,31.738
1586550069.652,50.781,30.762,35.156,16.113,85.938
1586550069.656,156.25,31.738,35.645,52.246,30.762
1586550069.66,25.879,36.133,39.062,15.137,-10.254
1586550069.664,-78.125,36.621,38.086,-24.414,7.812
1586550069.668,5.371,35.645,35.645,4.883,-20.996
1586550069.672,146.484,35.645,32.715,51.27,-26.367
1586550069.676,69.824,33.691,33.203,26.367,4.883
1586550069.679,-80.078,29.785,36.133,-17.578,-22.461
1586550069.683,-33.691,30.273,34.668,-9.277,33.691
1586550069.687,123.535,32.227,33.203,44.922,61.523
1586550069.691,104.004,32.715,34.18,56.152,60.059
1586550069.695,-67.383,31.25,32.715,-4.883,28.32
1586550069.699,-68.848,28.809,33.203,-19.043,-2.441
1586550069.703,79.102,32.227,33.203,34.668,-14.16
1586550069.707,142.09,34.668,33.203,65.918,-31.738
1586550069.711,-16.113,34.18,35.156,13.672,17.578
1586550069.715,-71.777,36.621,33.203,-9.277,-6.348
1586550069.719,51.27,36.621,32.227,28.809,20.508
1586550069.722,170.898,38.086,35.156,68.359,66.895
1586550069.726,46.387,39.062,35.156,23.438,69.824
1586550069.73,-77.637,33.691,32.227,-26.855,27.832
1586550069.734,0.977,31.25,31.25,-2.441,12.207
1586550069.738,146.484,31.738,29.785,50.293,52.734
1586550069.742,73.242,33.203,32.715,35.645,44.922
1586550069.746,-77.148,33.691,35.645,-20.508,24.414
1586550069.75,-33.203,35.156,31.738,-11.719,11.719
1586550069.754,125,36.621,26.855,45.898,49.316
1586550069.758,122.559,34.18,30.273,56.152,83.496
1586550069.761,-52.246,32.715,35.645,2.93,12.207
1586550069.765,-63.477,31.738,35.645,-6.348,-58.105
1586550069.769,74.219,29.297,33.691,43.457,-42.969
1586550069.773,148.438,31.25,32.227,70.801,4.395
1586550069.777,-3.418,31.25,34.18,12.695,7.812
1586550069.781,-83.496,29.297,37.109,-20.996,-1.953
1586550069.785,20.508,30.273,34.668,14.16,28.32
1586550069.789,153.32,30.762,35.156,63.965,53.223
1586550069.793,42.969,33.691,37.109,36.133,38.574
1586550069.797,-81.543,34.668,33.691,-6.348,19.531
1586550069.801,-15.625,31.738,34.668,5.859,20.02
1586550069.804,131.348,31.25,35.156,53.223,21.973
1586550069.808,99.121,34.668,32.227,51.758,64.453
1586550069.812,-55.176,32.227,34.18,-8.789,29.785
1586550069.816,-45.41,31.738,35.645,-14.16,19.043
1586550069.82,105.957,33.203,34.668,39.062,61.523
1586550069.824,138.672,28.809,32.715,52.734,37.598
1586550069.828,-31.738,28.809,34.668,-1.953,28.809
1586550069.832,-67.871,29.297,36.621,-16.113,47.852
1586550069.836,56.641,24.414,34.668,28.32,58.105
1586550069.84,145.508,26.855,30.762,62.5,12.695
1586550069.844,7.324,30.273,32.227,11.23,14.648
1586550069.847,-81.055,28.32,33.691,-32.227,19.043
1586550069.851,8.789,28.32,30.762,1.465,13.672
1586550069.855,141.113,26.855,30.762,53.223,27.344
1586550069.859,49.805,26.855,34.668,30.273,39.551
1586550069.863,-78.613,32.715,34.668,-13.184,14.648
1586550069.867,-25.391,32.227,32.715,-5.859,18.066
1586550069.871,129.395,28.32,32.715,48.828,50.293
1586550069.875,104.492,31.25,34.668,48.828,-23.926
1586550069.879,-68.359,30.273,35.156,-16.113,-8.301
1586550069.883,-60.059,27.832,34.668,-12.695,48.828
1586550069.886,90.82,29.297,30.273,44.434,39.551
1586550069.89,144.531,29.297,29.297,60.547,44.922
1586550069.894,-14.648,31.738,32.715,11.719,9.766
1586550069.898,-66.895,34.18,32.715,-6.348,17.09
1586550069.902,52.734,30.762,30.762,31.738,54.199
1586550069.906,158.691,30.762,28.809,72.266,61.523
1586550069.91,26.367,33.691,33.203,31.738,81.543
1586550069.914,-79.102,33.203,35.645,-12.207,38.574
1586550069.918,11.23,34.18,32.227,10.254,18.555
1586550069.922,161.133,33.203,30.762,65.918,12.695
1586550069.926,79.59,33.691,30.762,45.898,37.109
1586550069.929,-82.52,35.156,30.273,-10.742,54.688
1586550069.933,-49.805,32.715,33.203,-2.93,28.809
1586550069.937,116.699,29.785,33.691,50.781,12.695
1586550069.941,125,31.738,33.691,56.641,20.508
1586550069.945,-42.969,32.227,34.18,3.906,65.918
1586550069.949,-61.035,29.785,33.691,-7.324,-2.93
1586550069.953,86.914,29.785,32.715,37.109,-13.672
1586550069.957,156.738,29.785,30.273,67.383,44.922
1586550069.961,-6.836,29.785,33.691,19.043,54.688
1586550069.965,-66.406,32.227,35.156,-7.812,62.988
1586550069.969,42.969,34.668,32.227,32.715,23.926
1586550069.972,149.414,31.25,31.738,77.148,30.762
1586550069.976,32.715,32.227,31.738,41.504,-33.203
1586550069.98,-76.66,31.25,34.18,-9.766,-31.25
1586550069.984,1.953,27.832,32.715,2.93,-12.207
1586550069.988,148.438,32.227,29.297,59.082,9.277
1586550069.992,88.867,35.645,29.785,44.922,22.461
1586550069.996,-69.336,31.25,29.297,-14.648,47.852
1586550070,-42.48,26.855,30.762,-6.836,93.262
1586550070.004,109.863,28.32,31.738,57.129,38.574
1586550070.008,125.977,28.809,32.715,72.266,-11.23
1586550070.011,-37.598,29.785,33.691,12.207,41.016
1586550070.015,-59.082,32.227,31.25,-2.441,53.711
1586550070.019,79.102,29.297,31.738,35.645,-13.672
1586550070.023,159.18,28.32,31.738,63.965,-5.371
1586550070.027,-0.977,34.18,33.203,20.508,63.965
1586550070.031,-81.543,33.203,36.133,-13.672,35.156
1586550070.035,20.508,33.203,31.738,23.438,32.715
1586550070.039,152.344,35.156,29.297,70.801,30.762
1586550070.043,48.34,33.691,33.691,34.18,-38.086
1586550070.047,-87.402,33.203,32.715,-19.531,-36.621
1586550070.051,-14.16,31.738,32.227,3.418,-38.574
1586550070.054,140.625,29.785,33.691,67.871,-35.645
1586550070.058,98.633,32.227,34.18,59.57,8.301
1586550070.062,-65.918,34.668,37.598,1.953,10.742
1586550070.066,-49.805,35.645,38.086,-1.953,6.348
1586550070.07,100.098,33.203,34.18,51.27,20.996
1586550070.074,137.695,31.738,34.18,75.684,29.785
1586550070.078,-29.297,34.668,37.109,21.973,-3.906
1586550070.082,-69.336,33.691,38.574,1.465,-21.484
1586550070.086,61.523,34.18,35.645,42.969,-11.719
1586550070.09,155.762,36.621,31.25,70.801,-16.113
1586550070.094,21.973,32.715,33.691,27.832,25.879
1586550070.097,-72.754,33.691,33.691,-3.418,-5.859
1586550070.101,21.484,37.109,31.25,20.508,8.789
1586550070.105,172.363,36.133,33.203,67.383,38.086
1586550070.109,83.984,34.668,34.18,44.434,0
1586550070.113,-63.965,33.691,33.691,-4.395,-15.137
1586550070.117,-15.625,34.18,34.18,10.254,-4.395
1586550070.121,127.93,32.227,35.156,68.848,26.367
1586550070.125,104.492,29.297,34.668,66.895,46.387
1586550070.129,-67.383,30.762,36.621,10.254,29.297
1586550070.133,-67.383,30.273,37.598,9.277,-7.324
1586550070.136,80.566,30.273,37.109,52.734,-56.152
1586550070.14,145.02,34.18,35.645,57.617,-51.758
1586550070.144,-15.137,32.715,33.691,-4.395,-7.812
1586550070.148,-69.336,34.18,33.691,-23.438,30.273
1586550070.152,56.641,36.133,33.203,22.949,101.074
1586550070.156,156.738,34.18,33.203,68.848,74.707
1586550070.16,21.484,32.227,34.668,28.809,0
1586550070.164,-77.148,32.227,35.156,-20.996,-27.344
1586550070.168,3.418,30.762,36.621,4.395,10.742
1586550070.172,143.066,29.297,33.691,63.965,40.039
1586550070.176,72.754,27.344,33.691,41.992,89.355
1586550070.179,-86.914,25.391,36.621,-18.555,77.148
1586550070.183,-46.387,29.297,33.691,-10.254,48.828
1586550070.187,116.699,31.738,32.227,50.781,31.25
1586550070.191,126.465,33.691,31.738,54.199,-1.953
1586550070.195,-41.992,33.203,34.668,-10.254,4.883
1586550070.199,-62.988,31.738,34.18,-22.461,12.207
1586550070.203,70.312,31.738,34.18,29.785,36.621
1586550070.207,137.207,31.738,36.133,64.941,30.273
1586550070.211,-17.578,34.18,33.691,16.602,62.5
1586550070.215,-84.961,33.203,36.133,-10.254,71.289
1586550070.219,32.227,31.738,31.738,23.438,57.129
1586550070.222,161.133,31.738,26.855,64.941,22.461
1586550070.226,45.898,29.297,31.738,29.785,-10.742
1586550070.23,-75.684,27.832,32.227,-15.625,32.715
1586550070.234,-3.906,29.785,33.203,2.441,-1.953
1586550070.238,142.578,30.762,33.691,59.57,23.926
1586550070.242,92.773,32.715,32.227,49.805,95.215
1586550070.246,-72.266,31.25,35.645,-12.207,42.48
1586550070.25,-43.457,30.762,35.156,-2.441,41.504
1586550070.254,101.562,33.203,32.227,52.246,79.102
1586550070.258,114.746,29.297,33.203,62.988,42.48
1586550070.261,-39.062,31.25,37.598,1.465,-3.418
1586550070.265,-70.312,36.133,38.086,-17.578,15.625
1586550070.269,52.246,32.715,36.133,28.32,-8.789
1586550070.273,142.578,27.832,33.691,64.453,6.836
1586550070.277,2.441,29.785,29.785,22.461,-10.254
1586550070.281,-84.473,31.738,31.738,-16.113,-57.617
1586550070.285,10.254,29.297,34.18,19.531,-18.555
1586550070.289,140.625,28.32,33.691,71.777,17.578
1586550070.293,35.645,30.273,35.156,36.621,63.965
1586550070.297,-98.633,30.273,34.668,-16.113,84.473
1586550070.301,-29.297,31.738,34.668,-0.488,69.824
1586550070.304,128.418,35.156,34.18,59.57,108.887
1586550070.308,92.773,32.715,38.086,63.477,93.75
1586550070.312,-73.73,31.738,37.109,-8.301,8.301
1586550070.316,-47.363,34.18,32.227,-14.648,-17.578
1586550070.32,105.957,33.691,33.203,44.922,-26.855
1586550070.324,145.508,34.18,35.156,63.965,42.969
1586550070.328,-15.137,33.691,35.156,7.812,82.031
1586550070.332,-65.43,32.715,32.227,-11.719,20.02
1586550070.336,48.34,34.668,33.203,34.18,-32.715
1586550070.34,148.438,34.668,33.691,75.684,12.207
1586550070.344,14.16,35.156,32.227,31.25,27.832
1586550070.347,-87.891,33.203,33.691,-15.137,25.879
1586550070.351,-5.371,26.367,35.645,5.859,-0.977
1586550070.355,135.742,22.949,36.133,61.035,20.508
1586550070.359,57.129,24.414,38.574,51.27,59.082
1586550070.363,-91.797,26.855,38.086,-9.766,-8.789
1586550070.367,-44.922,28.32,34.18,-14.648,-26.367
1586550070.371,111.328,29.297,34.18,46.875,62.5
1586550070.375,109.863,31.25,33.203,49.805,53.711
1586550070.379,-53.711,32.715,33.691,-6.836,25.879
1586550070.383,-61.035,29.297,33.691,-11.23,19.531
1586550070.386,70.801,27.832,32.227,36.133,29.297
1586550070.39,131.348,28.809,32.715,61.523,53.223
1586550070.394,-29.297,28.809,33.691,13.672,-3.906
1586550070.398,-102.539,28.32,33.691,-18.066,-21.973
1586550070.402,23.926,30.273,34.668,12.207,19.043
1586550070.406,153.809,32.227,35.645,62.988,60.547
1586550070.41,40.527,35.156,35.156,28.809,74.707
1586550070.414,-65.43,35.645,35.156,-21.973,11.719
1586550070.418,8.301,35.645,36.621,-1.465,10.254
1586550070.422,153.32,37.598,35.645,62.012,39.062
1586550070.426,87.402,35.156,36.621,49.805,0.488
1586550070.429,-78.125,34.18,34.668,-11.719,-6.348
1586550070.433,-47.852,33.203,31.738,-6.836,-2.93
1586550070.437,107.91,34.18,32.227,48.828,19.531
1586550070.441,123.047,37.598,32.715,49.316,18.555
1586550070.445,-45.41,39.062,35.156,-5.859,27.832
1586550070.449,-71.777,38.086,33.691,-20.508,25.391
1586550070.453,74.219,37.109,32.715,21.973,32.227
1586550070.457,158.203,37.109,32.715,66.895,60.547
1586550070.461,3.418,34.18,35.156,18.555,71.777
1586550070.465,-72.754,35.645,37.109,-13.672,58.105
1586550070.469,37.109,37.598,35.156,22.949,-0.488
1586550070.472,163.574,31.738,35.156,68.848,-5.859
1586550070.476,48.828,30.762,37.109,46.387,30.273
1586550070.48,-79.102,34.18,35.645,-5.371,29.297
1586550070.484,-0.488,34.18,33.691,5.859,-11.719
1586550070.488,154.297,32.715,33.691,62.012,-51.758
1586550070.492,103.516,32.715,34.18,45.41,0
1586550070.496,-62.988,31.738,35.156,-12.695,7.812
1586550070.5,-53.711,28.809,32.227,-7.812,17.09
1586550070.504,100.586,31.25,29.785,45.41,32.227
1586550070.508,145.508,34.18,29.297,65.43,28.32
1586550070.511,-24.414,34.668,30.762,4.883,33.203
1586550070.515,-71.289,34.668,29.785,-19.043,5.859
1586550070.519,59.082,32.227,25.879,29.785,63.477
1586550070.523,143.066,30.762,27.344,64.453,102.051
1586550070.527,-8.789,32.227,32.227,19.531,89.355
1586550070.531,-88.867,35.645,32.715,-16.602,51.27
1586550070.535,15.137,34.668,28.809,9.277,47.852
1586550070.539,158.203,30.762,26.855,60.059,53.223
1586550070.543,70.801,30.762,30.273,35.156,16.602
1586550070.547,-67.871,33.203,30.762,-11.719,-18.555
1586550070.551,-19.043,33.691,27.832,13.672,-20.508
1586550070.554,123.535,31.738,31.25,68.848,-5.859
1586550070.558,104.004,32.227,34.18,53.223,19.043
1586550070.562,-58.105,35.156,31.738,-12.207,-13.672
1586550070.566,-53.711,34.18,27.832,-15.137,-14.648
1586550070.57,84.961,33.691,27.832,41.504,51.27
1586550070.574,131.348,35.156,31.25,68.359,32.715
1586550070.578,-30.273,31.25,33.203,7.812,12.695
1586550070.582,-83.008,30.762,32.227,-27.832,41.992
1586550070.586,49.316,32.715,29.297,15.137,22.949
1586550070.59,167.48,33.203,27.344,59.57,17.578
1586550070.594,40.527,35.645,29.785,15.625,70.312
1586550070.597,-69.336,35.156,33.203,-16.113,29.297
1586550070.601,12.695,34.18,30.762,11.23,-38.086
1586550070.605,144.531,34.668,29.297,64.453,6.348
1586550070.609,65.918,36.133,32.227,51.758,18.066
1586550070.613,-82.52,36.621,33.691,-0.488,-28.809
1586550070.617,-44.434,35.645,33.691,0.488,13.672
1586550070.621,113.77,36.133,34.668,54.199,41.016
1586550070.625,111.816,38.086,35.156,63.965,37.598
1586550070.629,-62.012,37.109,31.738,0.977,-10.742
1586550070.633,-74.219,32.227,27.344,-20.02,-66.895
1586550070.636,71.289,32.715,29.297,35.156,-0.977
1586550070.64,145.996,35.156,31.738,69.824,86.426
1586550070.644,-18.066,35.156,31.25,12.695,20.508
1586550070.648,-88.867,34.18,31.25,-17.578,-10.742
1586550070.652,37.109,32.715,33.203,23.438,12.695
1586550070.656,158.203,35.645,32.715,73.242,-27.344
1586550070.66,37.598,37.109,33.691,33.691,-19.531
1586550070.664,-89.844,31.738,37.598,-8.301,-3.906
1586550070.668,-19.531,31.25,33.203,11.23,23.926
1586550070.672,132.812,31.738,30.762,60.547,21.973
1586550070.676,85.449,31.25,35.645,49.316,1.953
1586550070.679,-69.336,33.691,37.109,-11.23,26.367
1586550070.683,-43.945,33.691,38.574,-3.906,19.531
1586550070.687,107.91,35.156,37.109,46.875,30.762
1586550070.691,123.047,36.621,35.645,54.688,42.48
1586550070.695,-42.48,35.645,38.086,1.953,26.855
1586550070.699,-69.336,36.133,40.527,-7.812,51.27
1586550070.703,67.383,32.227,39.062,35.645,51.27
1586550070.707,162.109,29.297,37.109,64.453,7.812
1586550070.711,13.184,32.715,36.133,19.043,41.016
1586550070.715,-76.172,33.203,37.598,-22.949,17.578
1586550070.719,22.461,31.738,38.574,2.441,0.488
1586550070.722,152.832,32.715,37.109,56.152,20.02
1586550070.726,53.223,34.18,35.156,29.297,27.344
1586550070.73,-78.613,35.156,35.156,-20.02,34.18
1586550070.734,-23.438,33.691,35.156,-6.348,23.926
1586550070.738,124.023,29.785,35.645,50.781,32.227
1586550070.742,85.449,28.809,35.645,52.246,26.855
1586550070.746,-85.938,30.762,32.227,-8.301,27.344
1586550070.75,-69.824,31.25,31.25,-17.09,3.418
1586550070.754,84.473,32.227,32.715,39.062,-45.41
1586550070.758,126.465,33.691,34.18,62.5,-28.809
1586550070.761,-37.598,28.809,37.598,7.324,-3.906
1586550070.765,-76.66,22.949,35.645,-20.996,13.672
1586550070.769,58.105,26.855,32.227,17.09,32.227
1586550070.773,161.621,30.762,33.203,59.082,10.254
1586550070.777,23.926,22.949,35.645,16.113,11.23
1586550070.781,-76.172,22.461,34.668,-19.043,55.176
1586550070.785,15.625,33.203,32.227,9.766,62.988
1586550070.789,159.668,39.062,31.738,59.082,85.938
1586550070.793,79.59,39.062,35.645,34.668,82.52
1586550070.797,-63.965,37.598,36.133,-16.113,26.855
1586550070.801,-22.461,35.645,33.691,-4.395,-4.883
1586550070.804,131.836,35.156,33.203,42.48,17.09
1586550070.808,108.887,37.109,31.25,43.457,29.297
1586550070.812,-65.918,36.621,34.18,-3.418,12.695
1586550070.816,-72.754,34.18,35.645,-9.277,9.766
1586550070.82,72.266,31.25,33.203,34.668,24.902
1586550070.824,136.23,30.762,34.668,61.035,34.668
1586550070.828,-24.414,30.762,36.133,9.766,9.277
1586550070.832,-81.055,30.273,36.621,-13.672,-0.977
1586550070.836,45.41,32.227,35.645,31.25,-2.93
1586550070.84,166.504,33.203,35.156,67.871,-14.16
1586550070.844,41.016,31.738,36.621,26.367,13.184
1586550070.847,-70.312,35.156,36.133,-7.812,4.395
1586550070.851,8.789,34.18,34.668,9.766,30.762
1586550070.855,152.832,31.25,32.227,58.594,57.617
1586550070.859,82.031,32.715,30.273,37.109,27.344
1586550070.863,-73.242,32.227,33.691,-16.113,28.32
1586550070.867,-37.598,31.25,34.668,-0.977,12.207
1586550070.871,120.117,28.32,32.227,52.246,20.996
1586550070.875,130.859,28.809,30.762,61.035,72.754
1586550070.879,-37.598,29.297,34.668,-1.953,99.121
1586550070.883,-60.059,29.297,35.645,-15.625,57.129
1586550070.886,71.777,26.855,33.203,37.598,23.438
1586550070.89,146.973,24.902,33.203,70.801,8.789
1586550070.894,-7.812,22.461,34.18,19.043,26.855
1586550070.898,-85.449,21.484,34.18,-15.137,-27.832
1586550070.902,20.02,25.879,33.691,23.438,-49.805
1586550070.906,147.461,26.367,32.715,74.219,17.09
1586550070.91,42.969,28.32,31.25,36.621,19.531
1586550070.914,-75.684,33.691,31.25,-16.113,29.785
1586550070.918,-4.395,29.785,32.715,-2.93,58.105
1586550070.922,140.625,26.367,30.762,54.199,63.477
1586550070.926,98.145,29.297,32.227,50.293,41.992
1586550070.929,-68.848,28.809,31.25,-8.301,-13.672
1586550070.933,-49.316,28.32,25.879,-14.16,8.789
1586550070.937,107.422,31.25,28.32,37.109,31.25
1586550070.941,128.418,32.227,30.273,55.176,15.625
1586550070.945,-39.062,31.25,31.25,0,20.02
1586550070.949,-70.312,30.762,31.738,-16.113,4.395
1586550070.953,54.199,34.18,30.273,29.785,29.785
1586550070.957,145.996,35.645,29.297,65.918,67.871
1586550070.961,12.207,34.668,34.18,23.926,6.836
1586550070.965,-77.148,33.203,34.668,-19.531,12.695
1586550070.969,18.066,32.227,31.738,6.348,112.305
1586550070.972,153.809,34.18,31.738,62.012,76.66
1586550070.976,55.664,34.668,31.738,32.227,0.977
1586550070.98,-86.426,36.621,32.715,-23.926,2.93
1586550070.984,-25.391,36.621,29.785,-8.301,37.598
1586550070.988,127.93,34.668,29.297,53.223,83.496
1586550070.992,96.191,35.156,32.715,53.711,92.285
1586550070.996,-66.895,32.715,33.203,-10.742,37.109
1586550071,-58.594,34.18,34.668,-13.184,-21.484
1586550071.004,89.355,35.645,35.645,44.922,-12.207
1586550071.008,144.043,35.156,33.691,72.266,75.195
1586550071.011,-14.16,37.109,33.691,9.766,54.688
1586550071.015,-73.242,33.203,35.645,-16.602,-2.93
1586550071.019,36.133,29.785,36.621,30.273,-2.93
1586550071.023,151.855,31.738,33.203,71.289,-8.301
1586550071.027,24.414,33.691,35.156,25.879,56.641
1586550071.031,-83.008,32.227,35.156,-25.879,37.109
1586550071.035,10.254,31.738,34.668,0,-22.949
1586550071.039,146.484,32.227,36.621,60.547,17.09
1586550071.043,66.895,31.738,38.086,45.898,33.691
1586550071.047,-74.707,30.273,38.574,-9.766,11.23
1586550071.051,-35.156,33.203,37.598,2.441,4.883
1586550071.054,115.723,32.715,38.086,63.477,10.254
1586550071.058,123.047,33.203,37.109,62.988,-4.395
1586550071.062,-37.109,38.086,36.621,0.977,-24.902
1586550071.066,-56.641,36.621,36.133,-0.977,0
1586550071.07,83.008,35.156,35.645,48.828,4.883
1586550071.074,149.414,36.621,37.598,72.266,65.43
1586550071.078,-16.602,33.203,39.062,23.438,72.266
1586550071.082,-84.961,34.18,36.133,-3.418,27.832
1586550071.086,27.832,36.133,36.621,28.32,36.621
1586550071.09,146.973,34.668,37.598,73.242,29.297
1586550071.094,32.715,31.25,37.598,27.344,49.316
1586550071.097,-77.148,32.715,38.574,-17.09,19.043
1586550071.101,-0.977,36.133,37.598,17.578,30.762
1586550071.105,146.973,35.645,38.086,65.43,4.395
1586550071.109,89.844,39.062,36.133,45.41,-55.176
1586550071.113,-65.918,40.527,36.621,-15.625,26.367
1586550071.117,-40.039,40.527,38.574,-13.672,33.691
1586550071.121,104.004,36.621,36.621,40.039,-23.926
1586550071.125,124.512,33.691,36.621,49.805,-52.734
1586550071.129,-43.945,36.133,35.645,-5.859,-57.129
1586550071.133,-73.242,35.156,35.156,-16.602,30.273
1586550071.136,67.383,30.762,33.691,27.344,51.27
1586550071.14,157.227,21.973,31.25,60.547,45.41
1586550071.144,10.742,25.391,30.273,14.16,45.41
1586550071.148,-63.965,34.668,30.273,-16.602,58.594
1586550071.152,42.48,41.016,31.25,19.531,41.016
1586550071.156,163.574,44.434,32.227,66.406,40.527
1586550071.16,47.363,41.992,32.227,39.062,70.312
1586550071.164,-91.797,38.574,32.715,-15.137,13.184
1586550071.168,-30.762,34.18,34.18,-3.906,-31.25
1586550071.172,122.07,34.668,33.691,49.805,0
1586550071.176,90.82,39.551,33.203,43.945,76.172
1586550071.179,-62.012,39.062,37.109,-7.812,20.996
1586550071.183,-44.922,35.156,36.133,-1.465,-25.879
1586550071.187,100.098,33.691,33.691,50.781,0
1586550071.191,133.301,33.691,34.668,62.5,57.617
1586550071.195,-29.785,34.18,31.738,-2.441,35.645
1586550071.199,-71.777,34.18,31.738,-20.02,-20.02
1586550071.203,54.688,31.25,35.645,30.273,9.277
1586550071.207,148.926,28.809,34.18,65.43,-2.441
1586550071.211,8.301,31.25,31.25,19.531,-39.551
1586550071.215,-80.566,33.203,35.156,-25.879,1.953
1586550071.219,18.066,36.133,34.668,2.93,26.855
1586550071.222,158.691,36.133,32.227,60.059,23.926
1586550071.226,67.871,35.156,33.691,38.086,10.254
1586550071.23,-73.73,33.203,32.715,-18.555,-25.879
1586550071.234,-28.32,35.645,31.25,-7.812,-31.25
1586550071.238,119.141,39.062,29.785,47.852,7.324
1586550071.242,105.957,36.133,32.227,46.387,18.066
1586550071.246,-56.152,37.598,37.109,-3.418,-30.273
1586550071.25,-58.105,40.527,33.691,-5.859,-46.387
1586550071.254,87.891,36.621,32.227,46.387,16.113
1586550071.258,145.02,35.645,32.227,73.242,45.41
1586550071.261,-19.531,35.645,31.738,18.066,15.625
1586550071.265,-71.777,34.18,33.691,-7.324,-9.277
1586550071.269,51.27,33.691,33.203,34.18,64.941
1586550071.273,165.039,33.203,30.762,70.801,79.59
1586550071.277,29.785,35.156,31.738,18.066,17.578
1586550071.281,-79.102,32.227,35.156,-25.391,32.227
1586550071.285,4.395,28.809,34.668,2.441,42.48
1586550071.289,143.066,29.297,33.203,54.199,41.992
1586550071.293,78.125,32.715,34.668,34.18,51.758
1586550071.297,-66.895,31.738,35.156,-15.625,72.266
1586550071.301,-29.785,29.785,33.691,-2.441,16.113
1586550071.304,113.281,34.18,32.715,48.828,11.23
1586550071.308,119.629,35.156,33.691,53.223,67.383
1586550071.312,-51.27,35.156,34.668,-3.418,67.871
1586550071.316,-63.965,34.668,33.691,-11.719,10.254
1586550071.32,76.172,31.738,35.645,38.086,53.711
1586550071.324,138.184,35.156,35.645,65.918,74.219
1586550071.328,-16.113,37.598,35.156,10.742,57.617
1586550071.332,-83.496,29.785,36.621,-29.297,57.129
1586550071.336,31.738,28.809,34.18,11.719,-11.719
1586550071.34,148.926,30.273,33.203,64.453,-22.461
1586550071.344,30.762,27.832,34.668,23.926,21.484
1586550071.347,-82.031,24.414,32.715,-24.414,52.246
1586550071.351,-11.23,27.832,30.273,2.441,69.336
1586550071.355,139.16,30.762,31.738,59.082,86.426
1586550071.359,90.82,32.227,34.18,43.457,47.852
1586550071.363,-73.242,32.227,36.133,-18.066,14.16
1586550071.367,-53.223,32.715,36.621,-13.184,11.23
1586550071.371,107.91,32.715,37.598,49.805,-8.789
1586550071.375,145.996,32.715,40.527,66.895,14.648
1586550071.379,-24.902,31.738,40.039,3.906,-4.395
1586550071.383,-58.594,32.227,36.133,-10.254,-5.859
1586550071.386,68.359,32.227,36.621,36.133,9.766
1586550071.39,160.156,32.227,37.109,68.848,8.789
1586550071.394,18.555,35.645,35.156,18.555,60.059
1586550071.398,-80.566,35.645,38.086,-20.508,65.43
1586550071.402,12.695,31.25,37.598,14.648,20.996
1586550071.406,145.996,32.715,32.227,64.941,43.457
1586550071.41,51.758,33.691,33.691,36.621,24.414
1586550071.414,-92.773,30.273,35.156,-18.066,3.418
1586550071.418,-36.621,29.297,35.645,-5.859,19.043
1586550071.422,122.07,30.762,34.668,55.664,39.551
1586550071.426,86.426,31.25,33.691,51.758,37.109
1586550071.429,-81.543,30.273,33.691,-1.953,9.766
1586550071.433,-61.035,32.715,35.156,0.488,-8.789
1586550071.437,98.633,34.18,31.25,45.898,7.812
1586550071.441,140.137,34.668,30.762,62.988,-20.508
1586550071.445,-30.273,34.18,34.18,3.906,-53.711
1586550071.449,-73.73,35.645,35.156,-19.531,-55.664
1586550071.453,58.594,36.133,38.574,26.855,14.16
1586550071.457,163.574,34.668,36.621,63.965,26.855
1586550071.461,25.879,33.691,39.062,22.461,-6.836
1586550071.465,-83.496,36.133,43.457,-15.625,2.441
1586550071.469,3.906,36.133,41.016,11.23,-18.066
1586550071.472,146.973,34.668,41.992,62.012,26.855
1586550071.476,75.684,37.598,40.039,38.574,20.02
1586550071.48,-60.547,39.062,37.598,-9.277,-13.184
1586550071.484,-19.531,37.598,38.574,3.418,36.133
1586550071.488,139.16,36.621,36.133,57.617,55.664
1586550071.492,132.812,38.574,36.621,66.406,-19.043
1586550071.496,-40.527,40.527,37.598,11.719,18.555
1586550071.5,-50.293,38.086,35.156,4.395,71.777
1586550071.504,94.727,36.133,34.668,49.805,38.086
1586550071.508,155.762,39.551,36.133,70.801,50.293
1586550071.511,-11.23,38.574,39.062,16.113,16.602
1586550071.515,-79.102,36.621,40.527,-10.254,-18.555
1586550071.519,40.527,36.133,38.574,20.508,35.156
1586550071.523,152.832,33.691,40.527,68.359,54.688
1586550071.527,26.367,35.645,37.598,36.621,29.785
1586550071.531,-75.195,37.109,33.691,-19.531,-9.766
1586550071.535,6.348,37.109,33.691,-4.883,28.809
1586550071.539,152.832,35.156,33.203,51.27,107.422
1586550071.543,87.891,33.203,36.133,37.109,61.035
1586550071.547,-81.543,30.273,36.621,-18.555,1.953
1586550071.551,-57.617,27.832,35.156,-11.719,23.926
1586550071.554,95.703,29.785,32.715,44.922,51.758
1586550071.558,112.793,31.25,33.203,57.617,32.227
1586550071.562,-51.27,31.25,39.062,-0.488,15.137
1586550071.566,-68.848,31.25,35.645,-15.625,-0.488
1586550071.57,71.777,34.18,30.273,33.691,-14.648
1586550071.574,144.043,35.156,31.738,70.801,37.109
1586550071.578,-5.371,33.691,34.668,21.484,44.434
1586550071.582,-74.219,35.156,36.133,-15.137,-4.395
1586550071.586,22.949,33.203,36.133,21.973,-30.762
1586550071.59,150.879,32.227,32.715,72.266,46.875
1586550071.594,50.781,34.18,31.738,41.504,32.227
1586550071.597,-71.289,32.715,33.203,-1.953,3.906
1586550071.601,-13.672,31.25,36.133,8.301,2.93
1586550071.605,120.117,31.738,35.645,56.641,-18.066
1586550071.609,85.449,30.273,36.621,58.105,50.781
1586550071.613,-75.684,29.297,38.086,-17.09,52.734
1586550071.617,-56.152,32.715,35.156,-23.926,-49.316
1586550071.621,96.68,36.133,32.715,27.832,-41.504
1586550071.625,123.535,35.156,33.203,32.715,7.324
1586550071.629,-40.527,36.133,34.668,-16.113,2.441
1586550071.633,-72.754,35.645,35.645,-26.367,8.789
1586550071.636,63.965,33.691,35.645,25.879,-13.184
1586550071.64,149.414,35.645,34.668,66.406,31.25
1586550071.644,2.93,37.109,37.109,20.02,89.844
1586550071.648,-83.008,37.598,39.551,-20.996,94.727
1586550071.652,12.695,35.156,37.598,5.859,45.898
1586550071.656,143.555,32.715,36.133,58.594,21.484
1586550071.66,50.781,33.203,33.691,21.973,11.23
1586550071.664,-85.449,31.738,30.762,-27.832,-28.809
1586550071.668,-29.785,29.297,28.809,-2.93,39.062
1586550071.672,128.906,29.297,27.344,51.27,51.27
1586550071.676,111.816,31.738,29.297,50.293,37.109
1586550071.679,-57.617,31.25,31.738,-6.836,72.266
1586550071.683,-57.617,31.25,32.715,-13.184,50.781
1586550071.687,87.891,33.203,30.762,42.969,15.625
1586550071.691,138.184,32.715,31.738,71.777,38.574
1586550071.695,-28.32,33.203,35.156,15.625,42.969
1586550071.699,-77.637,32.227,31.25,-11.23,4.883
1586550071.703,50.781,33.691,28.809,33.203,-47.363
1586550071.707,164.062,34.18,29.785,73.242,-13.672
1586550071.711,24.902,32.715,30.762,28.32,59.57
1586550071.715,-89.355,32.227,32.227,-19.531,-3.418
1586550071.719,1.465,32.227,29.785,-1.465,-20.02
1586550071.722,147.461,34.18,28.32,60.059,58.594
1586550071.726,64.453,33.203,31.738,43.457,57.617
1586550071.73,-82.031,32.227,33.691,-8.301,55.664
1586550071.734,-33.691,34.18,31.738,-6.348,35.156
1586550071.738,117.188,35.156,30.762,43.945,2.93
1586550071.742,122.559,39.062,34.18,61.035,-0.977
1586550071.746,-47.852,36.621,36.133,3.906,-18.555
1586550071.75,-68.359,31.738,35.645,-4.395,0
1586550071.754,77.637,32.715,34.18,44.922,-14.16
1586550071.758,154.297,30.762,32.715,66.406,25.391
1586550071.761,-11.23,27.832,33.691,16.113,54.199
1586550071.765,-88.867,26.855,37.109,-5.371,8.301
1586550071.769,31.738,26.367,38.574,33.203,-7.324
1586550071.773,164.062,28.809,39.062,74.219,28.809
1586550071.777,45.898,31.738,42.48,41.504,22.461
1586550071.781,-76.66,31.25,40.039,2.441,-18.555
1586550071.785,-1.465,31.738,36.133,11.719,10.742
1586550071.789,149.902,29.785,39.062,63.477,50.781
1586550071.793,103.027,29.785,39.551,59.082,33.203
1586550071.797,-63.965,28.809,38.574,-1.465,56.152
1586550071.801,-33.203,27.344,37.598,-0.488,41.016
1586550071.804,120.117,28.809,34.668,51.758,34.668
1586550071.808,121.094,32.227,36.621,61.523,53.711
1586550071.812,-44.434,34.668,36.621,4.395,17.09
1586550071.816,-70.312,32.227,35.645,-8.301,43.457
1586550071.82,58.105,31.25,36.621,36.621,62.5
1586550071.824,145.508,28.32,38.086,75.684,74.219
1586550071.828,0.488,29.785,38.086,25.879,-28.809
1586550071.832,-70.312,30.273,36.133,-16.113,-48.34
1586550071.836,36.133,29.785,36.621,17.09,45.898
1586550071.84,157.715,30.273,35.645,60.547,-14.648
1586550071.844,50.293,31.738,34.668,35.645,-5.371
1586550071.847,-83.008,31.25,36.133,-7.812,18.066
1586550071.851,-26.367,28.32,31.738,3.906,-8.789
1586550071.855,123.535,28.809,29.297,57.617,37.109
1586550071.859,97.656,31.25,31.25,52.734,95.703
1586550071.863,-61.035,30.762,32.715,-12.695,26.367
1586550071.867,-47.852,31.25,34.18,-20.02,5.859
1586550071.871,98.145,30.762,34.18,37.109,81.055
1586550071.875,141.113,29.785,35.156,68.359,57.617
1586550071.879,-21.484,28.809,36.621,16.113,26.367
1586550071.883,-65.918,28.809,35.156,-14.16,8.301
1586550071.886,55.176,28.32,34.668,24.902,20.508
1586550071.89,140.625,30.273,35.645,63.477,23.438
1586550071.894,5.859,31.25,36.133,20.02,13.184
1586550071.898,-79.59,33.691,33.691,-15.137,4.883
1586550071.902,10.254,36.621,31.738,12.207,14.648
1586550071.906,153.809,33.691,29.785,57.129,55.176
1586550071.91,73.73,33.203,29.785,31.738,53.711
1586550071.914,-76.66,32.715,32.715,-21.484,15.625
1586550071.918,-30.273,34.668,32.715,-13.672,-46.387
1586550071.922,124.023,33.691,29.785,41.016,-43.457
1586550071.926,113.281,31.738,31.25,46.387,-33.203
1586550071.929,-50.293,34.18,33.203,-12.695,-42.48
1586550071.933,-58.105,33.691,32.227,-13.672,-21.484
1586550071.937,80.078,32.227,32.715,39.551,-31.25
1586550071.941,146.973,33.203,33.691,65.43,3.906
1586550071.945,-8.789,35.156,36.133,20.02,120.117
1586550071.949,-73.242,33.691,37.598,-13.184,83.496
1586550071.953,38.086,31.738,38.086,20.02,23.438
1586550071.957,151.367,32.227,39.062,66.406,4.883
1586550071.961,30.273,32.227,39.062,23.926,5.859
1586550071.965,-84.473,33.203,36.621,-25.391,52.734
1586550071.969,0,33.691,36.133,3.906,18.555
1586550071.972,142.578,34.18,34.18,60.547,-2.441
1586550071.976,79.102,34.668,36.621,41.504,11.23
1586550071.98,-77.148,33.691,38.574,-8.789,-3.418
1586550071.984,-56.641,31.25,32.227,-5.371,-6.348
1586550071.988,96.68,29.297,32.227,51.758,2.93
1586550071.992,103.027,33.203,38.574,64.453,21.973
1586550071.996,-62.5,36.133,39.551,-4.883,-1.953
1586550072,-62.5,33.691,35.645,-18.066,-5.371
1586550072.004,71.777,31.25,31.25,36.133,4.883
1586550072.008,135.254,29.785,32.227,60.059,-5.371
1586550072.011,-2.441,33.203,33.203,11.23,19.531
1586550072.015,-69.336,34.668,35.645,-12.207,50.293
1586550072.019,33.203,32.715,34.18,23.438,57.617
1586550072.023,160.645,31.738,31.25,68.848,92.285
1586550072.027,50.293,32.227,37.598,32.227,62.988
1586550072.031,-80.566,32.715,37.598,-17.578,27.344
1586550072.035,-6.836,30.762,33.203,1.953,0.488
1586550072.039,147.949,30.273,32.715,55.664,26.855
1586550072.043,99.609,31.25,36.621,47.363,78.613
1586550072.047,-67.871,33.203,37.598,-5.371,60.547
1586550072.051,-56.641,31.738,35.645,-4.883,9.766
1586550072.054,92.285,28.809,36.133,40.527,-21.484
1586550072.058,134.766,31.738,38.086,55.664,12.695
1586550072.062,-30.273,31.738,34.668,1.953,42.48
1586550072.066,-73.73,27.344,33.691,-19.043,17.578
1586550072.07,66.895,27.832,35.156,31.738,33.691
1586550072.074,160.645,32.227,32.715,71.289,31.738
1586550072.078,9.277,33.203,36.133,18.066,10.254
1586550072.082,-77.637,33.691,32.227,-23.926,16.113
1586550072.086,19.043,37.109,24.902,6.348,21.973
1586550072.09,144.043,35.645,26.367,61.523,44.434
1586550072.094,51.27,30.273,29.297,35.645,24.414
1586550072.097,-84.473,31.738,30.273,-17.09,-29.785
1586550072.101,-24.414,32.715,30.762,-3.906,-42.48
1586550072.105,135.254,33.203,31.25,59.57,13.184
1586550072.109,100.098,35.156,32.715,58.594,13.672
1586550072.113,-68.359,34.18,35.156,-5.859,-45.41
1586550072.117,-58.105,33.691,33.691,-10.742,6.836
1586550072.121,92.773,32.715,29.297,40.039,43.457
1586550072.125,135.742,32.715,28.809,59.082,63.965
1586550072.129,-35.645,32.715,34.18,5.371,20.996
1586550072.133,-68.359,33.691,34.18,-12.207,0
1586550072.136,48.828,32.715,30.273,27.832,43.457
1586550072.14,142.09,31.25,31.738,63.477,15.625
1586550072.144,31.738,34.668,36.621,19.043,11.23
1586550072.148,-65.918,37.109,36.133,-21.484,18.555
1586550072.152,7.324,33.691,33.203,5.371,15.625
1586550072.156,150.391,31.25,33.203,60.059,33.203
1586550072.16,70.801,33.691,33.691,34.18,18.555
1586550072.164,-80.566,32.227,31.25,-17.09,17.578
1586550072.168,-34.668,30.273,31.25,-4.395,17.09
1586550072.172,111.328,31.25,32.227,44.922,9.277
1586550072.176,103.516,29.297,32.227,57.129,-1.953
1586550072.179,-59.57,30.762,35.156,6.836,26.855
1586550072.183,-61.035,29.785,36.133,-5.371,31.25
1586550072.187,83.984,27.344,34.668,44.434,22.461
1586550072.191,150.879,30.762,34.18,74.219,44.434
1586550072.195,-7.812,29.297,37.109,17.578,-20.508
1586550072.199,-68.359,27.344,35.645,-8.789,-14.16
1586550072.203,43.945,26.855,32.227,27.344,24.414
1586550072.207,157.227,25.879,29.785,65.918,14.16
1586550072.211,45.898,26.367,31.25,38.086,32.715
1586550072.215,-70.801,29.785,32.715,-11.23,39.062
1586550072.219,-0.977,29.297,30.273,9.277,6.348
1586550072.222,145.02,29.785,29.297,62.988,2.441
1586550072.226,93.75,30.273,29.785,37.109,11.719
1586550072.23,-64.453,28.32,30.762,-21.484,-12.207
1586550072.234,-39.551,29.785,29.785,-13.672,-16.602
1586550072.238,111.816,29.297,28.809,38.574,47.363
1586550072.242,126.465,29.297,29.297,44.434,76.172
1586550072.246,-35.645,33.691,27.344,-17.578,20.02
1586550072.25,-56.641,34.18,30.273,-26.855,-17.578
1586550072.254,71.289,31.25,32.227,23.926,26.367
1586550072.258,147.949,31.25,29.785,57.129,72.266
1586550072.261,-4.883,28.809,31.738,11.23,41.504
1586550072.265,-86.426,25.391,34.18,-23.926,8.301
1586550072.269,19.043,25.879,34.668,10.254,32.227
1586550072.273,152.344,25.879,36.133,64.453,-3.906
1586550072.277,50.293,29.297,34.668,38.086,-16.602
1586550072.281,-71.289,30.762,33.203,-26.855,63.965
1586550072.285,-7.324,30.762,33.203,-19.531,66.406
1586550072.289,131.836,30.762,33.203,55.176,41.504
1586550072.293,102.051,32.227,37.109,56.152,54.199
1586550072.297,-54.688,33.691,37.598,-5.859,35.645
1586550072.301,-46.387,33.691,34.668,-4.883,69.824
1586550072.304,97.168,32.715,35.645,51.27,31.25
1586550072.308,128.418,29.785,35.645,71.777,19.043
1586550072.312,-37.598,32.715,38.574,18.066,82.031
1586550072.316,-73.242,36.133,36.621,-4.395,-26.367
1586550072.32,52.734,32.227,34.668,34.18,-62.5
1586550072.324,152.832,29.297,38.574,66.406,17.578
1586550072.328,27.832,36.133,40.527,24.902,32.715
1586550072.332,-72.754,35.645,37.109,-14.648,42.969
1586550072.336,8.789,32.227,34.668,10.742,56.152
1586550072.34,147.461,33.691,32.227,66.406,42.48
1586550072.344,60.059,32.227,33.203,44.434,20.02
1586550072.347,-83.984,31.738,35.156,-3.906,28.809
1586550072.351,-28.809,36.133,31.25,12.207,19.043
1586550072.355,127.93,35.156,28.809,62.5,-0.488
1586550072.359,117.676,34.18,30.762,54.199,11.719
1586550072.363,-48.34,36.133,33.691,-6.836,18.555
1586550072.367,-50.781,34.668,33.203,-13.672,-9.277
1586550072.371,88.867,34.18,33.691,41.016,-1.953
1586550072.375,134.277,31.25,32.715,69.336,54.688
1586550072.379,-21.973,31.25,31.738,15.137,32.715
1586550072.383,-66.895,35.156,33.691,-9.277,-33.691
1586550072.386,60.059,31.25,35.156,35.645,-19.531
1586550072.39,161.133,29.297,35.645,71.289,17.09
1586550072.394,19.043,31.25,37.109,23.926,-1.953
1586550072.398,-93.75,31.25,37.109,-18.555,7.324
1586550072.402,-8.301,31.25,36.621,-0.488,-8.789
1586550072.406,139.648,31.25,37.598,60.059,-4.883
1586550072.41,73.73,33.203,37.598,49.316,56.641
1586550072.414,-73.73,34.668,36.133,-5.859,67.871
1586550072.418,-37.109,32.715,34.18,4.395,29.785
1586550072.422,118.652,33.203,33.691,50.293,-0.977
1586550072.426,120.605,36.133,36.133,52.246,-6.348
1586550072.429,-44.434,35.645,37.598,-9.277,-0.488
1586550072.433,-56.641,34.668,38.086,-12.695,-12.695
1586550072.437,78.613,34.668,39.062,53.711,37.598
1586550072.441,152.344,33.691,41.016,82.52,112.793
1586550072.445,-5.859,31.738,40.527,17.578,26.367
1586550072.449,-77.637,31.25,37.598,-20.996,-25.879
1586550072.453,30.762,31.738,35.156,11.719,14.648
1586550072.457,153.809,29.785,34.668,67.871,37.109
1586550072.461,37.598,27.832,36.621,35.645,82.031
1586550072.465,-85.938,29.785,37.598,-14.16,61.035
1586550072.469,-13.672,31.25,37.598,15.137,43.945
1586550072.472,138.184,32.227,35.156,66.406,80.078
1586550072.476,93.75,35.156,33.203,46.875,53.711
1586550072.48,-68.848,36.133,34.668,-10.742,57.617
1586550072.484,-53.711,36.133,35.156,-7.812,28.32
1586550072.488,106.445,35.156,36.133,58.594,84.961
1586550072.492,143.066,36.133,36.133,67.871,81.543
1586550072.496,-30.762,37.598,35.156,2.441,-24.902
1586550072.5,-72.754,37.109,35.645,-8.789,16.113
1586550072.504,55.664,37.109,37.109,37.109,-9.766
1586550072.508,155.762,37.598,33.691,73.242,-19.043
1586550072.511,25.879,37.109,33.203,28.809,-12.695
1586550072.515,-62.988,36.621,34.18,-10.254,-63.965
1586550072.519,33.691,37.109,31.738,10.254,0.488
1586550072.523,162.109,37.109,32.715,61.523,54.199
1586550072.527,59.082,38.086,34.668,43.457,64.453
1586550072.531,-78.125,36.621,34.18,-7.324,47.852
1586550072.535,-22.949,34.18,34.668,7.812,19.043
1586550072.539,133.301,36.133,34.18,60.547,11.23
1586550072.543,107.422,37.109,34.18,53.711,13.672
1586550072.547,-56.152,37.109,35.156,-6.836,25.879
1586550072.551,-53.223,37.598,32.227,-12.695,19.043
1586550072.554,90.332,37.109,31.738,41.992,19.043
1586550072.558,128.906,35.645,32.715,61.035,81.055
1586550072.562,-31.738,35.156,32.715,6.836,7.812
1586550072.566,-64.453,34.668,32.715,-13.184,-36.133
1586550072.57,51.758,30.273,32.715,25.391,25.391
1586550072.574,142.578,29.297,35.156,73.242,1.465
1586550072.578,8.789,29.785,36.621,28.809,-21.973
1586550072.582,-92.285,27.344,36.133,-15.137,50.781
1586550072.586,-5.859,27.344,34.668,16.113,42.48
1586550072.59,137.695,27.832,38.086,66.895,-34.668
1586550072.594,69.824,31.25,41.016,43.457,-26.855
1586550072.597,-63.477,32.715,36.621,-11.23,44.434
1586550072.601,-26.855,30.273,33.691,-1.465,54.199
1586550072.605,117.188,30.762,34.18,53.223,56.641
1586550072.609,112.793,32.715,34.668,60.059,91.309
1586550072.613,-54.199,36.133,34.18,2.93,61.035
1586550072.617,-57.129,37.598,32.227,-13.672,53.223
1586550072.621,87.402,37.109,33.203,38.086,60.547
1586550072.625,159.668,38.574,34.18,74.707,39.551
1586550072.629,2.441,39.551,33.203,15.137,31.738
1586550072.633,-65.918,37.109,34.668,-15.625,56.641
1586550072.636,46.387,36.133,36.621,30.273,18.555
1586550072.64,161.133,37.109,36.133,81.543,34.18
1586550072.644,43.457,38.574,37.109,45.41,70.312
1586550072.648,-76.66,36.621,37.109,-1.953,-26.855
1586550072.652,-7.812,33.691,35.156,11.719,-39.062
1586550072.656,142.578,34.668,31.738,65.43,15.625
1586550072.66,89.355,32.227,33.691,57.617,24.414
1586550072.664,-63.477,33.691,34.18,-2.93,-0.488
1586550072.668,-36.133,36.133,32.715,-5.859,16.602
1586550072.672,113.77,33.691,34.668,50.781,54.688
1586550072.676,132.812,33.203,35.645,64.941,31.738
1586550072.679,-37.598,33.691,34.668,3.906,21.484
1586550072.683,-65.43,34.18,34.668,-14.16,42.969
1586550072.687,67.383,33.691,34.18,33.203,10.254
1586550072.691,144.531,33.203,34.668,69.824,-6.836
1586550072.695,-7.812,34.668,34.18,24.902,-3.906
1586550072.699,-80.078,34.668,36.621,-9.766,-19.043
1586550072.703,21.973,31.738,36.621,18.066,80.078
1586550072.707,144.531,33.203,33.691,70.312,96.191
1586550072.711,43.457,36.133,33.203,38.574,8.789
1586550072.715,-75.195,34.18,31.25,-16.602,-15.625
1586550072.719,-6.836,32.715,31.738,-4.883,30.273
1586550072.722,137.695,31.25,31.25,49.316,9.277
1586550072.726,86.426,28.809,32.715,42.48,47.852
1586550072.73,-75.195,29.297,34.668,-13.184,59.57
1586550072.734,-54.199,30.762,33.203,-12.207,-29.297
1586550072.738,86.914,33.203,34.18,34.668,-6.836
1586550072.742,120.117,35.156,33.691,49.805,19.531
1586550072.746,-38.086,35.156,32.227,-2.441,19.531
1586550072.75,-63.477,33.203,32.715,-25.879,24.902
1586550072.754,69.824,30.762,32.715,16.113,11.719
1586550072.758,154.297,29.297,33.691,63.477,35.645
1586550072.761,1.465,30.762,34.18,20.508,33.203
1586550072.765,-91.309,32.715,33.203,-20.508,36.133
1586550072.769,11.23,32.715,30.762,15.625,70.312
1586550072.773,145.996,31.25,31.738,73.73,44.434
1586550072.777,59.082,33.203,35.645,44.922,2.441
1586550072.781,-74.219,34.18,35.645,-6.836,-2.441
1586550072.785,-27.832,31.25,37.598,8.301,30.762
1586550072.789,126.465,33.203,35.645,55.664,1.465
1586550072.793,107.422,34.668,33.691,52.734,25.391
1586550072.797,-52.246,34.18,35.156,-0.488,20.02
1586550072.801,-41.992,38.086,34.668,-3.906,-32.227
1586550072.804,101.562,36.621,35.156,49.805,12.207
1586550072.808,150.879,35.645,35.156,76.66,60.547
1586550072.812,-11.23,36.621,35.156,23.926,29.297
1586550072.816,-62.988,34.18,36.133,-2.441,16.602
1586550072.82,57.617,36.133,35.156,34.18,1.953
1586550072.824,172.363,38.086,34.668,73.242,-5.859
1586550072.828,36.133,33.203,38.574,25.879,6.836
1586550072.832,-79.59,31.738,41.504,-16.602,-28.809
1586550072.836,4.395,34.18,40.039,11.719,2.441
1586550072.84,144.043,32.227,39.551,60.547,13.184
1586550072.844,73.242,32.227,40.039,34.668,-26.367
1586550072.847,-70.801,34.18,37.598,-15.625,-20.508
1586550072.851,-39.062,35.156,36.621,-4.883,-6.836
1586550072.855,102.539,34.18,37.598,51.758,28.32
1586550072.859,103.516,36.133,36.133,57.617,24.414
1586550072.863,-59.082,34.668,35.156,-3.906,-2.441
1586550072.867,-67.383,31.738,37.598,-11.719,2.93
1586550072.871,69.336,30.762,38.086,38.086,4.395
1586550072.875,139.16,33.691,35.156,61.523,62.988
1586550072.879,-14.16,34.18,34.668,8.301,63.965
1586550072.883,-85.449,30.273,33.691,-12.695,22.949
1586550072.886,20.508,30.762,32.227,26.855,18.066
1586550072.89,147.949,33.203,32.715,66.895,44.434
1586550072.894,36.621,33.203,34.18,33.203,56.152
1586550072.898,-84.961,33.691,35.156,-15.625,4.883
1586550072.902,-5.859,34.668,35.156,6.348,-48.828
1586550072.906,147.461,33.203,36.133,64.453,5.859
1586550072.91,98.145,33.691,37.598,53.711,53.223
1586550072.914,-60.059,36.133,39.062,1.465,72.266
1586550072.918,-29.785,32.715,38.086,3.906,28.809
1586550072.922,127.441,29.297,36.133,55.664,-20.508
1586550072.926,142.578,31.738,37.109,71.289,17.09
1586550072.929,-31.738,31.25,39.062,17.09,77.148
1586550072.933,-66.895,30.762,39.062,-5.859,58.594
1586550072.937,62.012,31.738,36.621,33.691,17.09
1586550072.941,153.809,30.762,36.133,68.359,0.977
1586550072.945,6.348,30.762,39.551,19.531,-18.066
1586550072.949,-74.219,29.785,41.504,-12.207,-21.973
1586550072.953,36.621,32.227,41.504,19.043,33.203
1586550072.957,167.48,33.691,39.551,59.082,58.594
1586550072.961,66.406,31.25,37.598,25.391,23.926
1586550072.965,-77.637,28.809,38.086,-22.949,-8.301
1586550072.969,-36.133,28.809,38.086,-4.883,37.598
1586550072.972,110.352,29.297,38.086,51.27,83.496
1586550072.976,81.055,31.738,37.109,38.086,16.113
1586550072.98,-83.496,35.645,36.621,-29.297,-43.945
1586550072.984,-65.43,35.645,40.039,-26.855,-15.137
1586550072.988,90.332,34.668,37.109,31.25,43.457
1586550072.992,129.883,37.598,31.25,52.734,70.312
1586550072.996,-31.25,38.086,34.18,4.883,60.547
1586550073,-68.848,37.598,35.156,-11.23,18.555
1586550073.004,59.082,41.504,33.691,33.691,15.137
1586550073.008,160.645,42.48,33.203,76.172,70.312
1586550073.011,21.484,40.527,35.156,35.156,24.902
1586550073.015,-79.59,37.598,36.621,-9.277,13.672
1586550073.019,17.09,34.668,35.156,15.137,22.949
1586550073.023,161.621,32.715,36.621,67.871,-36.621
1586550073.027,76.66,35.156,37.598,44.434,-9.766
1586550073.031,-67.383,34.668,34.668,-7.812,13.184
1586550073.035,-20.02,34.18,34.668,5.371,12.695
1586550073.039,132.812,36.621,35.156,62.5,59.57
1586550073.043,116.699,37.109,36.133,61.523,51.758
1586550073.047,-43.945,38.086,40.039,3.906,13.184
1586550073.051,-45.898,37.109,37.109,-3.906,17.578
1586550073.054,83.984,35.645,34.18,42.48,36.133
1586550073.058,139.16,33.691,35.156,69.336,55.176
1586550073.062,-25.879,35.156,37.598,12.695,13.672
1586550073.066,-94.238,32.715,39.551,-14.16,-11.719
1586550073.07,25.391,31.25,37.598,25.879,-11.719
1586550073.074,140.625,34.668,36.133,59.57,100.098
1586550073.078,12.207,34.18,38.086,19.531,122.559
1586550073.082,-89.844,36.133,38.574,-23.926,11.719
1586550073.086,-4.883,36.621,34.668,-6.836,13.672
1586550073.09,138.672,34.668,33.691,53.223,-5.859
1586550073.094,78.613,36.133,37.109,39.551,-10.742
1586550073.097,-69.336,38.086,37.109,-8.789,36.621
1586550073.101,-35.645,39.062,37.598,-3.906,23.926
1586550073.105,117.188,35.645,38.086,42.48,22.461
1586550073.109,124.512,37.109,38.574,65.918,76.172
1586550073.113,-46.875,40.527,41.504,10.254,45.41
1586550073.117,-62.012,36.621,41.992,-0.488,14.648
1586550073.121,92.285,35.156,34.668,49.316,38.574
1586550073.125,184.082,37.598,30.762,83.496,41.504
1586550073.129,29.785,34.668,38.574,38.086,-75.684
1586550073.133,-51.758,34.668,41.016,-0.488,-116.211
1586550073.136,38.574,32.715,37.598,27.344,-38.086
1586550073.14,146.973,30.273,39.062,77.148,33.203
1586550073.144,39.062,34.668,43.457,48.34,93.262
1586550073.148,-90.82,35.156,43.457,0.977,75.684
1586550073.152,-24.902,32.715,40.039,11.719,80.078
1586550073.156,140.137,30.762,38.574,63.965,76.172
1586550073.16,103.027,30.762,40.039,48.828,43.457
1586550073.164,-61.035,32.227,40.039,-16.113,28.809
1586550073.168,-52.246,30.762,37.598,-7.324,20.02
1586550073.172,85.449,27.832,33.203,46.387,41.504
1586550073.176,107.91,27.832,33.203,51.758,22.461
1586550073.179,-55.664,30.273,33.203,-7.324,-11.719
1586550073.183,-85.449,29.785,29.785,-24.902,-0.977
1586550073.187,50.293,28.809,30.273,20.508,14.648
1586550073.191,145.02,31.738,31.25,49.316,13.184
1586550073.195,1.953,32.715,33.691,-1.465,1.953
1586550073.199,-80.078,32.715,33.203,-38.574,41.992
1586550073.203,21.973,32.715,33.691,-2.93,11.23
1586550073.207,158.691,31.738,31.738,55.664,-1.465
1586550073.211,77.148,35.156,32.227,35.645,73.73
1586550073.215,-65.918,33.691,35.156,-18.066,44.434
1586550073.219,-15.137,33.203,33.203,2.93,-45.41
1586550073.222,144.531,36.621,33.691,66.895,-2.441
1586550073.226,119.141,36.133,36.621,67.383,53.223
1586550073.23,-44.434,35.645,35.645,4.883,30.762
1586550073.234,-38.086,34.18,33.691,-9.277,21.484
1586550073.238,103.027,33.691,32.715,40.527,1.465
1586550073.242,145.02,32.227,31.25,59.57,24.414
1586550073.246,-20.02,31.25,32.227,2.441,41.016
1586550073.25,-72.754,34.18,32.715,-25.879,0.488
1586550073.254,50.293,34.18,32.227,14.16,24.414
1586550073.258,159.18,33.691,32.715,62.5,33.691
1586550073.261,26.367,33.691,37.109,26.855,13.672
1586550073.265,-82.031,32.715,34.18,-9.766,49.316
1586550073.269,-2.93,31.738,34.18,12.695,38.086
1586550073.273,132.812,32.227,37.598,56.152,-6.836
1586550073.277,61.035,34.18,37.598,35.156,-40.039
1586550073.281,-81.543,33.691,35.645,-20.996,-23.926
1586550073.285,-42.969,37.109,34.18,-7.812,18.555
1586550073.289,109.863,35.156,35.645,53.223,18.555
1586550073.293,105.957,31.738,38.574,52.734,65.43
1586550073.297,-55.664,33.691,39.062,-5.859,47.852
1586550073.301,-63.965,33.203,38.086,-5.859,13.672
1586550073.304,69.336,30.273,39.551,47.363,18.555
1586550073.308,134.277,31.25,36.621,62.988,-3.906
1586550073.312,-15.137,36.133,31.738,3.906,17.578
1586550073.316,-78.613,35.156,31.25,-25.879,-37.598
1586550073.32,40.527,33.691,31.25,14.648,-39.062
1586550073.324,170.898,37.109,33.691,73.73,70.801
1586550073.328,49.316,39.062,38.086,41.016,21.973
1586550073.332,-70.312,36.133,33.203,-16.113,-15.625
1586550073.336,3.418,37.598,29.785,3.906,38.086
1586550073.34,147.949,38.086,32.227,67.383,53.711
1586550073.344,85.449,37.598,34.668,54.688,24.414
1586550073.347,-69.336,37.598,34.668,-7.324,16.602
1586550073.351,-30.273,36.133,33.203,-6.348,51.27
1586550073.355,116.211,32.715,32.227,51.758,49.805
1586550073.359,121.094,31.25,32.715,62.012,33.691
1586550073.363,-49.805,30.273,33.691,3.906,37.598
1586550073.367,-71.777,29.785,32.227,-8.789,-4.883
1586550073.371,62.012,30.273,32.715,34.18,-4.395
1586550073.375,144.531,33.691,31.738,66.895,71.289
1586550073.379,-4.395,36.621,31.25,12.695,64.453
1586550073.383,-98.633,36.133,33.203,-27.832,93.75
1586550073.386,5.371,35.645,32.715,10.254,51.27
1586550073.39,148.438,35.156,29.785,55.176,25.391
1586550073.394,51.27,35.645,28.809,18.555,7.812
1586550073.398,-67.383,36.133,29.297,-20.02,-36.133
1586550073.402,-9.277,36.621,31.738,-1.465,-36.133
1586550073.406,125.977,34.668,33.203,55.664,15.137
1586550073.41,86.426,33.691,32.715,56.641,56.641
1586550073.414,-76.66,33.691,34.18,0.977,34.18
1586550073.418,-54.688,31.25,35.645,0,14.16
1586550073.422,104.004,31.738,32.715,44.434,22.949
1586550073.426,148.926,33.203,30.273,59.57,11.719
1586550073.429,-11.23,33.691,34.18,9.766,5.371
1586550073.433,-54.688,35.645,34.668,-9.766,-26.855
1586550073.437,68.848,38.086,28.809,35.645,-57.129
1586550073.441,162.109,38.086,29.785,79.59,25.391
1586550073.445,18.555,36.133,34.18,34.18,95.215
1586550073.449,-74.707,37.109,35.645,-14.16,91.309
1586550073.453,17.09,34.668,36.621,16.602,35.156
1586550073.457,149.414,26.855,32.715,69.336,40.039
1586550073.461,68.848,27.832,29.297,39.062,34.18
1586550073.465,-74.707,29.785,33.203,-12.207,20.02
1586550073.469,-24.414,30.273,33.691,-0.488,31.25
1586550073.472,122.559,30.762,29.297,46.387,48.828
1586550073.476,95.215,30.273,32.715,47.363,19.043
1586550073.48,-75.684,31.25,36.133,-11.23,0.977
1586550073.484,-76.66,33.691,36.621,-20.02,39.062
1586550073.488,73.242,35.156,35.156,34.668,24.414
1586550073.492,130.371,33.203,38.086,63.477,-9.277
1586550073.496,-34.18,35.645,38.086,8.301,16.602
1586550073.5,-88.379,36.621,34.18,-15.625,24.414
1586550073.504,37.109,31.738,34.668,25.391,-5.371
1586550073.508,153.32,33.203,32.715,69.336,50.293
1586550073.511,27.344,34.668,34.668,39.062,56.641
1586550073.515,-79.59,33.203,33.691,-5.371,51.758
1586550073.519,3.906,33.691,31.25,2.441,-17.09
1586550073.523,144.531,31.738,31.25,48.828,-9.766
1586550073.527,83.496,32.227,29.297,32.715,45.898
1586550073.531,-60.059,34.18,31.25,-17.578,22.461
1586550073.535,-16.113,37.109,31.25,-6.348,58.105
1586550073.539,132.812,38.086,31.25,50.781,89.844
1586550073.543,129.883,36.621,31.738,61.035,25.879
1586550073.547,-33.691,37.598,33.203,-6.348,-19.043
1586550073.551,-51.758,34.668,37.109,-11.719,-7.324
1586550073.554,84.473,29.785,34.668,42.48,46.875
1586550073.558,158.203,28.809,35.156,67.871,20.996
1586550073.562,6.836,33.691,38.086,14.16,-47.363
1586550073.566,-55.664,38.086,36.621,-18.066,-11.719
1586550073.57,41.992,34.668,37.109,20.02,23.926
1586550073.574,149.902,33.691,35.645,73.242,25.879
1586550073.578,39.551,33.691,36.133,43.457,8.789
1586550073.582,-81.543,34.18,40.039,-11.719,-5.859
1586550073.586,-10.254,35.645,40.527,0.488,-22.949
1586550073.59,136.719,35.156,37.598,53.223,-13.672
1586550073.594,92.285,33.691,38.574,42.969,0.488
1586550073.597,-69.824,33.691,39.062,-12.695,64.941
1586550073.601,-51.27,35.156,38.086,-14.648,107.91
1586550073.605,105.957,35.645,39.062,41.992,41.504
1586550073.609,133.789,39.062,38.574,55.664,21.484
1586550073.613,-31.25,38.086,38.086,-2.441,33.203
1586550073.617,-66.406,32.227,36.133,-16.113,48.828
1586550073.621,67.871,33.203,34.18,30.273,64.453
1586550073.625,161.133,33.691,35.156,67.383,64.941
1586550073.629,10.742,32.715,37.109,20.996,31.738
1586550073.633,-76.66,30.762,37.598,-12.695,31.25
1586550073.636,25.879,30.762,34.18,22.949,24.902
1586550073.64,160.645,32.227,31.738,70.312,-3.906
1586550073.644,71.289,33.203,35.645,41.504,-14.648
1586550073.648,-61.523,34.18,39.062,-9.766,0.488
1586550073.652,-10.254,36.133,36.133,11.23,21.973
1586550073.656,140.625,36.133,34.668,74.219,72.266
1586550073.66,111.816,36.621,33.691,64.453,58.105
1586550073.664,-51.758,38.086,31.738,-5.371,-20.508
1586550073.668,-41.016,38.574,36.133,-11.719,-12.695
1586550073.672,98.633,38.574,35.645,42.969,21.484
1586550073.676,130.371,36.133,33.203,65.43,7.324
1586550073.679,-40.039,33.691,35.645,7.324,26.367
1586550073.683,-83.496,31.25,37.109,-14.16,41.504
1586550073.687,45.41,33.203,35.156,21.484,36.621
1586550073.691,150.879,32.715,35.156,54.199,24.414
1586550073.695,21.484,32.715,35.156,15.625,-10.742
1586550073.699,-89.844,33.203,34.18,-22.461,-37.109
1586550073.703,-7.812,32.715,33.691,2.441,14.16
1586550073.707,145.996,35.156,31.25,51.27,45.898
1586550073.711,68.848,35.156,32.715,36.133,-26.367
1586550073.715,-85.938,36.133,35.645,-15.625,-53.711
1586550073.719,-37.598,35.156,34.18,-6.348,12.695
1586550073.722,115.234,31.25,31.738,57.617,67.383
1586550073.726,108.887,33.203,32.227,58.594,40.039
1586550073.73,-43.945,33.691,35.156,-5.371,25.879
1586550073.734,-48.34,34.668,34.668,-13.184,18.066
1586550073.738,88.867,36.133,33.203,41.992,14.16
1586550073.742,159.18,37.109,33.203,68.848,43.457
1586550073.746,-8.789,35.156,35.156,13.184,-7.812
1586550073.75,-83.984,33.203,35.156,-10.254,-33.691
1586550073.754,38.574,36.133,34.18,32.715,-2.93
1586550073.758,155.762,36.133,36.621,73.73,6.836
1586550073.761,35.645,36.133,35.156,27.344,-24.414
1586550073.765,-75.195,35.645,36.133,-24.414,-50.293
1586550073.769,3.418,31.738,36.133,-3.418,-20.996
1586550073.773,147.461,33.203,33.691,53.223,59.57
1586550073.777,76.172,36.621,38.574,40.527,38.574
1586550073.781,-82.031,37.109,39.551,-19.043,23.926
1586550073.785,-52.246,36.133,34.18,-17.09,33.203
1586550073.789,99.121,33.203,34.668,41.504,9.766
1586550073.793,114.258,33.691,37.598,59.082,56.641
1586550073.797,-47.363,34.668,38.574,3.418,102.539
1586550073.801,-69.336,32.715,37.598,-13.184,29.785
1586550073.804,61.523,31.738,32.715,33.691,-3.906
1586550073.808,144.531,31.25,31.25,62.5,24.414
1586550073.812,-13.672,30.273,33.203,17.578,0.488
1586550073.816,-93.262,31.738,33.203,-20.508,-26.367
1586550073.82,17.578,34.18,30.762,5.371,-23.438
1586550073.824,143.555,33.203,30.762,62.5,38.574
1586550073.828,40.527,33.203,35.645,33.691,43.945
1586550073.832,-77.637,33.203,36.133,-19.043,2.93
1586550073.836,-5.371,34.18,31.25,0,-14.648
1586550073.84,151.367,36.621,29.785,60.059,5.859
1586550073.844,109.863,36.133,37.109,53.711,48.34
1586550073.847,-44.922,41.016,35.156,-3.418,12.695
1586550073.851,-28.809,40.039,32.715,-1.953,-24.902
1586550073.855,106.934,34.18,36.133,41.504,5.371
1586550073.859,137.207,33.691,37.109,53.223,8.789
1586550073.863,-38.574,30.273,41.016,4.395,46.875
1586550073.867,-83.496,26.855,39.551,-14.16,53.711
1586550073.871,43.945,29.785,35.645,23.438,7.324
1586550073.875,141.113,33.203,32.715,62.988,5.371
1586550073.879,9.277,31.738,34.668,24.414,39.551
1586550073.883,-81.543,30.762,35.156,-11.23,16.113
1586550073.886,17.09,30.273,32.715,17.09,-11.719
1586550073.89,156.738,29.297,30.762,63.965,51.27
1586550073.894,59.57,30.273,32.715,38.574,42.48
1586550073.898,-84.473,26.367,34.668,-6.348,13.184
1586550073.902,-31.738,26.367,32.227,13.184,11.719
1586550073.906,122.07,28.809,32.715,61.035,27.832
1586550073.91,114.746,31.25,36.133,52.734,56.152
1586550073.914,-41.504,29.785,36.621,-12.207,45.898
1586550073.918,-47.363,25.879,35.156,-18.066,21.973
1586550073.922,85.938,25.879,36.621,41.016,8.301
1586550073.926,128.906,24.902,36.133,66.895,9.766
1586550073.929,-33.203,24.414,37.109,8.301,31.25
1586550073.933,-75.195,23.926,37.598,-22.461,51.758
1586550073.937,52.246,23.438,35.156,23.926,5.371
1586550073.941,162.109,27.344,35.645,71.777,33.691
1586550073.945,37.598,27.344,38.574,30.273,51.758
1586550073.949,-68.848,26.367,39.062,-18.555,18.066
1586550073.953,7.324,29.297,36.621,7.324,48.34
1586550073.957,149.414,30.762,36.621,64.453,58.105
1586550073.961,75.684,32.715,34.18,52.246,10.742
1586550073.965,-74.707,30.762,34.668,-3.906,43.457
1586550073.969,-41.016,28.32,35.156,-9.766,96.68
1586550073.972,105.957,27.832,32.227,40.527,41.016
1586550073.976,105.957,30.273,31.25,45.41,5.859
1586550073.98,-57.129,29.785,34.668,-15.625,16.113
1586550073.984,-67.871,30.762,37.598,-19.531,0
1586550073.988,67.871,33.203,32.227,33.691,44.434
1586550073.992,134.277,29.785,30.273,63.477,87.402
1586550073.996,-30.273,28.809,34.18,17.09,73.242
1586550074,-97.168,30.273,35.156,-17.578,26.855
1586550074.004,28.32,32.227,33.691,6.836,-3.906
1586550074.008,148.438,32.715,32.227,58.105,39.551
1586550074.011,37.109,34.18,30.273,30.273,6.348
1586550074.015,-79.59,35.156,31.25,-17.09,12.207
1586550074.019,-8.301,35.156,31.25,6.348,75.195
1586550074.023,131.836,37.598,30.762,59.57,82.52
1586550074.027,83.008,38.574,29.785,44.434,92.285
1586550074.031,-57.129,38.086,28.809,-18.555,67.871
1586550074.035,-35.645,36.133,31.25,-16.602,28.32
1586550074.039,99.609,35.156,32.715,40.039,35.645
1586550074.043,121.094,35.645,33.203,56.152,48.828
1586550074.047,-44.922,34.668,34.18,-5.859,30.762
1586550074.051,-78.613,33.691,32.715,-23.926,6.348
1586550074.054,57.129,34.668,32.227,28.809,-11.23
1586550074.058,138.184,32.715,35.156,68.359,37.598
1586550074.062,-5.859,32.227,34.668,16.602,46.387
1586550074.066,-79.102,33.691,34.668,-20.996,-25.879
1586550074.07,16.113,30.273,36.133,20.996,-26.367
1586550074.074,141.602,29.297,34.18,72.754,65.918
1586550074.078,39.551,32.227,36.133,41.504,56.641
1586550074.082,-92.285,32.715,34.18,-16.602,-17.09
1586550074.086,-30.762,32.227,34.18,1.465,17.578
1586550074.09,122.559,29.785,35.645,60.547,59.082
1586550074.094,97.168,30.273,37.598,49.316,54.688
1586550074.097,-64.453,33.203,38.574,-12.695,15.625
1586550074.101,-56.641,31.738,37.109,-16.113,-7.812
1586550074.105,83.984,27.832,36.621,34.18,0
1586550074.109,123.047,27.832,33.203,52.246,0.488
1586550074.113,-28.32,28.32,35.156,-4.883,47.852
1586550074.117,-72.266,27.832,38.574,-23.926,7.812
1586550074.121,46.875,26.855,36.133,21.973,3.418
1586550074.125,146.484,30.762,35.156,57.617,17.578
1586550074.129,11.719,32.715,34.18,13.672,-13.184
1586550074.133,-88.867,31.25,35.645,-18.066,-2.441
1586550074.136,0,33.691,39.062,16.113,-17.578
1586550074.14,136.719,33.203,39.062,66.406,33.203
1586550074.144,58.105,31.738,41.016,46.875,18.555
1586550074.148,-71.777,33.203,41.504,3.906,-10.254
1586550074.152,-25.879,31.738,41.504,18.555,0
1586550074.156,124.023,29.297,40.527,72.266,-31.25
1586550074.16,110.352,31.25,39.062,72.754,-6.348
1586550074.164,-53.711,32.715,40.039,2.93,17.578
1586550074.168,-51.758,32.715,41.016,-15.137,46.387
1586550074.172,89.844,35.645,41.504,38.574,48.828
1586550074.176,150.879,32.227,41.016,65.43,12.695
1586550074.179,-10.742,31.25,40.527,10.254,22.461
1586550074.183,-73.73,33.203,41.504,-16.113,59.57
1586550074.187,43.945,33.203,42.969,25.391,-38.574
1586550074.191,165.527,37.109,40.039,75.195,-57.129
1586550074.195,42.969,38.574,39.551,34.668,-26.855
1586550074.199,-75.684,36.133,40.039,-11.719,-26.367
1586550074.203,1.465,35.156,37.598,9.766,3.418
1586550074.207,139.648,35.645,38.574,69.824,66.406
1586550074.211,73.242,37.598,39.062,51.27,68.848
1586550074.215,-80.078,36.621,39.062,-10.742,19.531
1586550074.219,-41.016,34.18,38.574,-1.953,34.668
1586550074.222,111.816,34.668,37.109,47.363,7.324
1586550074.226,111.328,34.18,36.621,53.711,24.414
1586550074.23,-62.988,32.715,38.574,-5.859,-7.324
1586550074.234,-87.891,32.715,40.039,-24.902,7.812
1586550074.238,53.223,35.156,40.039,17.09,13.184
1586550074.242,128.906,36.621,39.551,44.434,-26.367
1586550074.246,-26.367,39.062,42.48,-11.719,47.852
1586550074.25,-103.516,36.621,47.363,-50.293,43.945
1586550074.254,-11.719,34.668,45.898,-24.902,14.648
1586550074.258,111.816,36.133,44.434,19.043,30.762
1586550074.261,7.324,41.016,49.316,-11.719,35.645
1586550074.265,-128.418,44.922,49.805,-62.988,41.504
1586550074.269,-64.453,44.922,46.875,-53.711,68.848
1586550074.273,83.984,45.41,49.805,4.883,104.492
1586550074.277,29.297,47.363,50.293,-3.906,87.891
1586550074.281,-135.742,49.316,49.805,-75.684,96.68
1586550074.285,-113.281,47.363,48.828,-74.707,44.922
1586550074.289,37.598,43.945,45.898,-15.625,-27.344
1586550074.293,74.707,45.41,49.316,5.371,20.508
1586550074.297,-93.262,47.363,51.758,-50.293,29.785
1586550074.301,-136.719,44.434,54.199,-72.754,47.852
1586550074.304,-8.301,50.293,54.688,-26.367,27.344
1586550074.308,77.637,51.758,48.828,9.277,18.555
1586550074.312,-69.824,48.34,52.734,-48.828,58.594
1586550074.316,-153.809,54.688,56.152,-94.727,25.391
1586550074.32,-48.828,58.594,55.664,-62.988,28.809
1586550074.324,80.566,55.176,53.711,-10.254,18.066
1586550074.328,-15.137,58.105,51.27,-39.551,-23.926
1586550074.332,-154.785,58.105,54.199,-101.562,-20.996
1586550074.336,-113.77,58.105,54.688,-96.68,-8.301
1586550074.34,25.879,62.012,54.688,-50.781,37.109
1586550074.344,5.371,62.5,53.711,-61.035,3.418
1586550074.347,-167.969,60.059,53.223,-119.141,-16.113
1586550074.351,-177.734,64.453,54.688,-132.812,-4.883
1586550074.355,-44.434,62.5,55.176,-83.496,60.547
1586550074.359,7.812,62.5,57.129,-60.059,101.562
1586550074.363,-145.02,68.848,57.129,-122.07,73.73
1586550074.367,-202.148,62.988,56.152,-146.973,44.434
1586550074.371,-85.449,59.082,57.617,-112.305,29.785
1586550074.375,25.391,62.988,59.082,-75.684,46.875
1586550074.379,-104.492,66.406,59.57,-117.188,71.777
1586550074.383,-197.754,69.336,54.199,-148.438,46.387
1586550074.386,-104.004,66.895,51.758,-108.398,35.645
1586550074.39,37.598,59.082,51.27,-47.852,41.016
1586550074.394,-27.832,58.594,50.781,-54.199,16.113
1586550074.398,-161.133,61.035,50.293,-101.562,19.531
1586550074.402,-103.516,61.035,43.945,-93.75,-5.371
1586550074.406,60.547,60.547,36.621,-23.438,55.664
1586550074.41,73.242,57.129,37.109,5.371,102.051
1586550074.414,-85.449,55.664,36.621,-47.363,24.414
1586550074.418,-85.938,52.734,34.18,-52.246,19.531
1586550074.422,70.801,48.34,31.738,14.648,37.109
1586550074.426,145.02,46.387,23.438,61.035,-2.93
1586550074.429,-3.906,42.969,21.484,27.832,6.348
1586550074.433,-69.336,40.527,25.391,1.465,-28.809
1586550074.437,42.969,39.062,23.926,39.062,4.883
1586550074.441,178.223,38.574,17.09,98.145,44.922
1586550074.445,70.312,37.598,15.137,66.895,-27.344
1586550074.449,-46.875,34.18,16.602,30.273,-59.57
1586550074.453,41.992,33.203,14.16,64.941,-60.547
1586550074.457,200.684,30.273,9.277,123.047,-8.789
1586550074.461,146.484,25.391,11.23,114.258,-10.742
1586550074.465,-3.906,20.996,13.184,62.5,-60.547
1586550074.469,29.785,21.973,14.648,58.105,-14.16
1586550074.472,185.547,24.902,11.719,115.234,46.875
1586550074.476,214.355,23.438,8.301,135.254,48.34
1586550074.48,51.27,22.949,12.207,78.125,44.922
1586550074.484,18.555,25.879,11.719,59.082,15.137
1586550074.488,149.902,22.461,13.184,105.469,-15.137
1586550074.492,242.676,19.531,15.625,145.996,20.02
1586550074.496,89.844,18.066,14.648,95.703,-11.719
1586550074.5,4.883,16.113,13.672,61.035,20.996
1586550074.504,114.258,14.16,14.16,98.145,-2.441
1586550074.508,234.375,12.207,12.695,148.438,-16.113
1586550074.511,126.953,12.207,15.625,125,48.828
1586550074.515,3.418,11.719,22.461,84.961,40.527
1586550074.519,61.523,13.672,22.461,95.215,35.645
1586550074.523,206.543,14.648,18.555,141.113,55.176
1586550074.527,175.781,13.184,23.438,133.789,63.477
1586550074.531,7.812,14.16,24.414,68.359,-2.441
1586550074.535,21.973,16.113,22.949,60.547,-3.906
1586550074.539,172.363,14.16,25.879,108.398,51.758
1586550074.543,200.195,10.254,24.902,123.047,40.527
1586550074.547,31.738,12.695,26.367,63.477,-5.859
1586550074.551,-16.602,13.184,25.879,36.621,21.973
1586550074.554,104.492,12.207,24.414,76.66,81.543
1586550074.558,204.59,15.137,26.855,112.305,56.152
1586550074.562,72.266,16.602,28.809,69.336,46.387
1586550074.566,-21.484,16.113,28.809,33.203,12.695
1586550074.57,71.289,16.602,27.344,55.664,-9.277
1586550074.574,206.055,14.648,27.344,107.91,20.996
1586550074.578,116.699,14.648,28.32,88.867,61.035
1586550074.582,-31.25,18.066,31.738,32.227,-15.625
1586550074.586,15.625,16.602,31.25,41.016,-62.012
1586550074.59,171.387,19.043,27.832,103.516,9.766
1586550074.594,161.621,21.973,30.762,103.027,27.832
1586550074.597,-6.836,19.043,34.668,36.133,39.062
1586550074.601,-11.719,20.508,32.715,30.762,20.996
1586550074.605,129.883,22.949,32.227,86.426,45.898
1586550074.609,183.105,22.461,34.18,111.328,12.207
1586550074.613,19.531,23.926,31.25,51.758,-59.082
1586550074.617,-41.504,21.973,28.809,19.043,65.43
1586550074.621,75.195,22.461,32.715,50.293,83.008
1586550074.625,189.941,27.832,33.203,90.332,17.09
1586550074.629,60.547,26.855,32.227,53.711,45.41
1586550074.633,-58.105,22.461,31.738,2.441,6.836
1586550074.636,19.531,24.902,31.25,19.531,11.23
1586550074.64,169.434,27.832,31.738,78.613,32.227
1586550074.644,105.469,28.809,31.738,61.523,-23.926
1586550074.648,-48.34,28.809,33.691,3.906,23.438
1586550074.652,-6.348,29.297,33.691,14.16,38.574
1586550074.656,144.043,30.273,34.668,74.707,17.578
1586550074.66,145.02,31.25,39.551,82.52,29.785
1586550074.664,-24.902,33.203,38.574,19.531,-32.715
1586550074.668,-35.156,35.645,37.598,8.301,-51.758
1586550074.672,101.562,38.086,35.645,55.664,0.977
1586550074.676,167.48,37.109,33.691,83.496,30.762
1586550074.679,14.648,37.598,36.133,28.32,8.789
1586550074.683,-65.918,38.574,33.691,-9.766,30.273
1586550074.687,40.039,36.133,30.762,18.066,7.812
1586550074.691,164.062,32.227,32.715,64.453,4.883
1586550074.695,48.828,31.738,32.227,36.621,33.203
1586550074.699,-74.219,33.203,32.227,-13.184,19.043
1586550074.703,1.953,34.18,34.18,7.812,25.391
1586550074.707,154.785,32.227,32.715,64.941,67.383
1586550074.711,104.004,32.715,32.227,53.223,56.641
1586550074.715,-51.758,33.691,33.691,0.488,14.16
1586550074.719,-33.203,32.715,33.691,4.395,20.02
1586550074.722,107.422,30.273,34.668,56.641,11.719
1586550074.726,131.836,28.809,33.203,67.871,15.137
1586550074.73,-37.598,23.438,33.203,5.371,56.152
1586550074.734,-66.895,20.996,38.574,-6.348,10.254
1586550074.738,67.383,22.949,37.598,39.551,7.324
1586550074.742,152.344,23.926,32.227,57.617,60.547
1586550074.746,1.465,24.414,35.645,9.766,41.504
1586550074.75,-86.426,24.414,37.598,-16.113,47.852
1586550074.754,7.324,24.414,33.203,19.043,8.301
1586550074.758,139.16,27.832,31.738,61.523,7.324
1586550074.761,46.875,29.785,33.691,27.832,43.457
1586550074.765,-86.914,31.25,32.715,-20.02,47.852
1586550074.769,-28.32,31.25,34.668,-5.371,61.035
1586550074.773,128.906,33.691,31.25,44.434,33.691
1586550074.777,108.887,35.645,33.203,43.945,54.199
1586550074.781,-61.523,34.18,37.109,-12.695,58.105
1586550074.785,-59.57,34.18,34.18,-17.09,34.668
1586550074.789,94.727,33.691,34.668,42.48,-17.578
1586550074.793,138.672,32.715,34.668,66.406,-41.992
1586550074.797,-28.809,33.691,34.668,12.695,41.992
1586550074.801,-64.453,34.18,32.715,-9.766,39.062
1586550074.804,66.406,33.691,31.738,33.691,5.371
1586550074.808,163.086,34.18,37.109,77.637,12.695
1586550074.812,30.762,36.133,39.062,40.039,16.113
1586550074.816,-65.918,33.691,38.574,1.953,28.809
1586550074.82,13.184,29.297,37.598,23.438,54.199
1586550074.824,148.438,30.273,37.109,63.965,12.695
1586550074.828,75.684,34.18,37.109,35.645,4.395
1586550074.832,-67.871,33.691,37.109,-19.531,61.523
1586550074.836,-28.809,30.762,35.156,-12.695,53.711
1586550074.84,106.445,32.227,32.227,43.945,94.238
1586550074.844,99.609,33.203,34.668,57.617,77.637
1586550074.847,-68.848,31.738,34.668,-7.812,14.16
1586550074.851,-76.66,30.273,32.715,-20.996,-14.648
1586550074.855,72.754,29.297,35.645,35.156,-13.672
1586550074.859,139.16,29.297,37.598,62.5,42.48
1586550074.863,-18.555,32.227,35.645,6.348,44.434
1586550074.867,-78.125,32.227,34.668,-22.461,-8.301
1586550074.871,30.762,31.738,36.133,17.578,-8.301
1586550074.875,139.16,33.203,37.598,66.895,28.809
1586550074.879,25.391,34.18,39.551,34.18,14.648
1586550074.883,-87.891,36.133,38.086,-11.719,23.438
1586550074.886,-11.23,33.691,38.086,14.648,20.996
1586550074.89,138.184,32.227,38.574,66.895,45.41
1586550074.894,74.219,36.133,37.109,45.898,69.824
1586550074.898,-70.801,36.621,37.109,-7.324,29.297
1586550074.902,-33.691,36.621,36.133,-7.812,32.227
1586550074.906,111.816,40.527,32.227,43.457,62.5
1586550074.91,121.094,41.504,33.691,64.453,44.922
1586550074.914,-51.758,38.574,35.645,3.418,0.977
1586550074.918,-72.266,38.086,34.668,-10.254,22.949
1586550074.922,75.195,39.062,33.691,41.504,36.621
1586550074.926,161.621,39.551,35.645,71.777,5.859
1586550074.929,7.812,40.039,38.574,20.508,69.336
1586550074.933,-72.754,40.039,38.086,-19.531,78.613
1586550074.937,35.645,37.598,37.109,19.043,-6.348
1586550074.941,166.504,33.691,37.109,77.148,58.105
1586550074.945,58.105,31.25,38.574,37.598,59.082
1586550074.949,-76.172,33.691,36.133,-12.207,-10.742
1586550074.953,-10.742,34.668,34.668,2.441,-28.809
1586550074.957,134.766,33.691,34.18,55.176,-48.34
1586550074.961,88.867,32.715,35.645,50.293,5.859
1586550074.965,-66.406,29.785,38.574,-7.324,-10.254
1586550074.969,-47.363,29.785,37.598,-6.348,-35.156
1586550074.972,92.773,32.227,35.645,48.828,-21.484
1586550074.976,117.188,29.785,38.086,62.988,-3.418
1586550074.98,-55.664,30.273,38.086,1.465,-13.672
1586550074.984,-88.867,33.691,38.086,-14.648,-7.812
1586550074.988,47.852,32.715,37.598,28.809,54.199
1586550074.992,144.531,31.738,33.203,62.5,63.965
1586550074.996,4.395,34.18,37.598,19.043,60.547
1586550075,-86.426,32.715,37.598,-15.625,81.543
1586550075.004,16.113,32.715,36.133,14.16,77.148
1586550075.008,154.297,31.25,36.621,61.035,78.125
1586550075.011,64.453,28.809,37.598,38.574,90.82
1586550075.015,-75.684,30.762,40.039,-10.742,23.438
1586550075.019,-22.949,32.227,38.574,3.418,-1.953
1586550075.023,131.348,33.203,36.133,59.082,36.133
1586550075.027,117.188,33.691,35.645,58.105,19.043
1586550075.031,-44.922,34.18,33.691,-2.93,44.922
1586550075.035,-49.316,35.156,30.273,-18.066,-17.578
1586550075.039,83.984,33.691,29.297,30.762,-44.922
1586550075.043,139.648,31.738,29.785,59.082,9.277
1586550075.047,-16.602,32.715,31.25,1.465,-16.113
1586550075.051,-71.777,34.18,35.156,-17.09,0.977
1586550075.054,41.992,35.156,34.668,25.391,10.254
1586550075.058,155.273,35.645,31.25,60.059,4.883
1586550075.062,36.621,36.133,32.227,20.508,37.109
1586550075.066,-72.754,35.645,33.203,-25.391,50.781
1586550075.07,0,35.156,34.668,3.906,-19.531
1586550075.074,141.113,37.598,33.203,64.453,-25.391
1586550075.078,79.59,35.645,35.645,49.316,6.348
1586550075.082,-64.941,33.203,38.574,-6.836,-12.207
1586550075.086,-29.785,35.645,38.086,0.488,25.879
1586550075.09,115.723,34.18,38.574,54.199,62.5
1586550075.094,124.512,36.621,36.133,55.176,84.961
1586550075.097,-33.203,34.18,36.621,-2.93,40.039
1586550075.101,-50.781,31.738,39.551,-1.953,10.742
1586550075.105,81.055,30.762,40.039,54.199,6.836
1586550075.109,153.32,30.273,40.039,81.543,-12.695
1586550075.113,-3.906,30.762,41.504,27.832,11.23
1586550075.117,-80.078,30.273,40.527,-10.742,21.973
1586550075.121,27.832,30.762,37.109,18.066,32.715
1586550075.125,156.25,29.785,41.016,65.43,72.266
1586550075.129,50.781,31.738,44.922,33.203,72.754
1586550075.133,-75.195,33.203,41.504,-13.672,28.809
1586550075.136,-11.23,32.227,42.48,8.301,-19.043
1586550075.14,143.066,33.691,42.48,52.734,15.137
1586550075.144,84.473,30.762,41.992,41.016,16.602
1586550075.148,-80.078,30.273,42.969,-11.719,-37.109
1586550075.152,-50.293,30.762,40.039,-12.207,15.137
1586550075.156,102.539,32.715,37.109,44.922,71.777
1586550075.16,129.395,35.645,36.621,56.641,37.598
1586550075.164,-33.203,32.227,41.992,-6.836,-20.508
1586550075.168,-68.848,28.32,41.016,-24.414,42.969
1586550075.172,58.594,30.762,36.621,23.926,103.516
1586550075.176,142.09,35.156,36.133,62.988,77.637
1586550075.179,-6.348,35.156,35.156,12.207,93.262
1586550075.183,-86.914,35.156,36.621,-20.996,64.941
1586550075.187,11.719,37.598,35.156,16.113,-2.93
1586550075.191,147.949,34.668,32.715,57.617,84.473
1586550075.195,52.734,30.762,35.645,23.438,66.895
1586550075.199,-77.637,31.25,35.645,-24.902,-13.184
1586550075.203,-8.789,32.227,35.156,1.953,35.156
1586550075.207,142.578,32.715,36.621,63.965,17.578
1586550075.211,106.934,34.18,37.598,59.082,32.715
1586550075.215,-52.734,35.156,37.598,0.977,32.227
1586550075.219,-45.41,35.645,38.086,-1.465,41.016
1586550075.222,100.586,36.133,38.574,45.41,69.336
1586550075.226,146.973,36.621,36.621,69.336,7.812
1586550075.23,-21.973,38.086,36.621,16.602,0.488
1586550075.234,-74.219,37.109,36.133,-12.695,20.996
1586550075.238,58.105,36.133,36.133,37.598,28.809
1586550075.242,165.039,39.062,38.086,79.59,20.996
1586550075.246,26.855,38.086,40.527,30.273,-34.668
1586550075.25,-78.613,36.133,42.48,-6.836,-4.395
1586550075.254,11.23,34.668,41.016,23.438,26.367
1586550075.258,155.762,33.203,38.086,74.707,7.812
1586550075.261,65.918,31.25,39.551,54.688,-27.344
1586550075.265,-82.031,31.25,37.598,0,-41.016
1586550075.269,-30.273,33.203,33.691,-2.93,-17.09
1586550075.273,120.117,32.715,33.203,41.992,19.531
1586550075.277,104.004,33.691,37.109,42.48,0
1586550075.281,-61.035,34.668,39.062,-14.648,-53.223
1586550075.285,-65.43,32.715,36.133,-18.066,-1.953
1586550075.289,80.566,31.25,33.691,34.668,55.176
1586550075.293,148.926,34.18,35.156,57.617,61.035
1586550075.297,-10.742,32.715,37.109,6.836,-21.973
1586550075.301,-73.73,31.738,35.156,-16.113,-7.324
1586550075.304,41.504,32.227,33.691,21.973,34.18
1586550075.308,161.133,28.32,35.645,61.035,26.367
1586550075.312,39.062,28.32,38.086,22.949,-1.953
1586550075.316,-80.078,30.762,36.133,-17.09,-50.293
1586550075.32,0.977,28.32,34.668,5.371,-67.871
1586550075.324,152.344,30.762,33.691,62.012,-44.922
1586550075.328,86.914,34.668,34.668,50.781,8.301
1586550075.332,-66.895,33.691,38.086,-1.953,12.207
1586550075.336,-31.25,34.668,36.133,-5.371,-10.254
1586550075.34,123.047,32.227,37.109,49.805,-1.953
1586550075.344,130.371,29.297,40.039,65.43,-6.348
1586550075.347,-52.734,29.785,37.598,-0.977,48.828
1586550075.351,-74.219,29.297,35.156,-18.555,76.172
1586550075.355,65.918,29.297,34.668,31.738,40.527
1586550075.359,137.207,30.762,38.574,66.895,46.875
1586550075.363,-13.672,35.156,38.574,15.137,11.23
1586550075.367,-83.984,38.086,35.156,-18.555,2.93
1586550075.371,15.137,33.691,36.621,16.602,36.621
1586550075.375,142.578,31.738,35.156,63.477,23.926
1586550075.379,38.574,34.18,34.668,26.855,-42.48
1586550075.383,-84.473,35.156,34.668,-27.344,-88.867
1586550075.386,-11.719,35.156,34.668,-11.719,0.488
1586550075.39,145.02,35.156,35.156,51.758,33.203
1586550075.394,102.051,35.156,36.133,50.781,-7.812
1586550075.398,-69.824,36.621,37.109,-6.836,-5.859
1586550075.402,-54.199,33.203,39.062,-7.324,-14.648
1586550075.406,102.539,32.715,39.062,44.922,-53.223
1586550075.41,137.207,40.527,36.133,60.059,1.953
1586550075.414,-29.785,40.039,34.668,-1.953,14.648
1586550075.418,-72.266,34.18,34.668,-18.555,-5.859
1586550075.422,56.641,33.691,35.156,29.297,30.762
1586550075.426,153.32,32.715,35.645,63.965,30.273
1586550075.429,8.789,32.715,36.621,20.996,41.504
1586550075.433,-80.566,32.715,37.598,-14.648,54.199
1586550075.437,15.137,30.762,39.062,17.09,67.383
1586550075.441,149.414,30.762,37.109,69.336,36.133
1586550075.445,62.988,30.273,35.645,39.062,-4.395
1586550075.449,-77.637,29.785,37.109,-19.043,-6.836
1586550075.453,-28.32,30.762,34.668,-5.859,66.406
1586550075.457,131.836,35.645,33.691,52.734,77.148
1586550075.461,113.77,37.598,34.668,47.852,-13.184
1586550075.465,-67.871,32.227,38.574,-11.719,-40.527
1586550075.469,-61.523,31.25,38.574,-14.648,-15.137
1586550075.472,93.262,33.203,34.668,35.645,14.648
1586550075.476,136.719,32.715,35.645,62.988,0
1586550075.48,-27.344,31.738,38.086,8.789,-1.465
1586550075.484,-79.102,32.227,37.109,-12.695,33.203
1586550075.488,47.363,33.691,35.156,26.855,47.363
1586550075.492,160.156,34.668,34.668,64.941,11.719
1586550075.496,31.738,34.668,34.18,24.902,63.965
1586550075.5,-68.359,36.621,34.668,-17.578,103.027
1586550075.504,9.766,33.691,34.18,3.906,40.039
1586550075.508,148.438,32.715,29.785,55.664,42.969
1586550075.511,78.613,32.715,33.203,38.574,38.086
1586550075.515,-75.195,29.297,35.156,-19.043,40.039
1586550075.519,-34.18,29.785,31.25,-10.742,40.039
1586550075.523,119.141,32.227,31.25,48.34,64.453
1586550075.527,108.887,32.227,34.18,58.105,93.75
1586550075.531,-64.453,28.809,35.645,-4.395,4.883
1586550075.535,-67.383,27.832,35.645,-17.09,-32.227
1586550075.539,73.242,28.32,35.156,37.109,57.129
1586550075.543,140.625,30.273,33.203,58.594,30.273
1586550075.547,-9.277,31.25,34.668,-3.418,-1.953
1586550075.551,-76.66,28.809,33.203,-27.832,40.527
1586550075.554,30.273,28.809,34.18,17.578,64.941
1586550075.558,151.367,34.18,39.062,66.895,38.574
1586550075.562,35.645,35.156,38.574,34.18,-25.879
1586550075.566,-85.449,30.762,38.086,-20.02,2.93
1586550075.57,-9.277,27.832,39.062,-4.395,19.531
1586550075.574,138.184,26.855,36.621,53.223,18.555
1586550075.578,77.148,24.414,36.133,39.062,40.527
1586550075.582,-68.359,27.344,37.598,-17.578,13.184
1586550075.586,-33.203,29.297,38.086,-16.602,1.953
1586550075.59,113.281,27.832,36.621,43.945,-13.672
1586550075.594,126.953,29.297,36.133,62.988,37.109
1586550075.597,-45.898,28.32,38.086,4.395,25.391
1586550075.601,-74.219,27.832,37.109,-2.441,20.996
1586550075.605,53.223,27.832,33.203,41.992,107.91
1586550075.609,145.02,26.855,34.668,69.336,28.809
1586550075.613,13.184,29.297,39.062,22.461,-14.16
1586550075.617,-70.801,29.297,39.551,-10.742,48.34
1586550075.621,27.832,25.391,38.574,14.648,-0.488
1586550075.625,164.551,26.855,35.645,61.035,27.832
1586550075.629,67.383,28.809,36.133,37.109,77.637
1586550075.633,-64.453,26.367,36.133,-14.16,49.805
1586550075.636,-9.766,25.391,34.18,4.883,-28.809
1586550075.64,127.93,25.391,33.203,62.012,-10.742
1586550075.644,95.215,28.809,34.668,55.664,-20.02
1586550075.648,-63.965,31.25,38.086,-0.977,-18.066
1586550075.652,-59.57,28.809,38.574,-3.418,40.039
1586550075.656,90.82,29.785,36.621,49.316,53.223
1586550075.66,136.23,32.227,37.109,69.336,52.734
1586550075.664,-26.855,33.203,37.598,8.789,42.48
1586550075.668,-69.824,32.715,37.598,-19.531,23.926
1586550075.672,53.223,31.738,36.621,20.02,-37.109
1586550075.676,151.855,32.227,34.668,56.152,2.441
1586550075.679,18.066,33.203,36.133,10.742,-26.367
1586550075.683,-80.078,35.156,34.18,-23.926,-9.766
1586550075.687,7.324,33.203,35.156,9.766,41.504
1586550075.691,149.902,31.25,35.156,69.336,-18.555
1586550075.695,73.73,35.645,33.691,50.781,31.738
1586550075.699,-72.754,36.133,33.691,-10.742,79.59
1586550075.703,-31.25,34.18,34.18,-7.812,69.336
1586550075.707,124.512,35.645,33.691,49.316,52.246
1586550075.711,114.258,35.645,36.621,53.223,-2.441
1586550075.715,-52.246,33.203,40.039,-2.441,-34.18
1586550075.719,-58.594,33.203,35.156,-14.648,3.906
1586550075.722,81.055,31.25,34.668,28.809,44.922
1586550075.726,143.066,31.738,35.156,58.594,98.633
1586550075.73,-14.16,32.227,35.156,8.789,75.684
1586550075.734,-75.684,30.762,39.062,-16.602,42.969
1586550075.738,38.086,31.738,37.109,16.602,18.555
1586550075.742,152.832,31.25,35.156,56.641,-14.648
1586550075.746,24.902,31.25,40.039,18.066,9.766
1586550075.75,-94.238,32.227,38.086,-29.785,1.465
1586550075.754,-12.695,30.762,33.203,-4.395,1.953
1586550075.758,137.207,27.832,34.18,57.129,47.363
1586550075.761,66.895,31.738,38.086,48.34,68.848
1586550075.765,-94.238,31.25,41.016,-8.789,26.855
1586550075.769,-54.688,28.32,39.062,-2.93,-10.742
1586550075.773,98.633,29.785,35.645,49.805,11.23
1586550075.777,113.281,32.715,38.574,57.129,24.414
1586550075.781,-45.898,32.715,42.48,0,9.766
1586550075.785,-62.5,30.273,40.039,-24.414,36.133
1586550075.789,79.59,34.18,37.598,25.391,36.133
1586550075.793,154.297,35.156,37.598,66.406,45.41
1586550075.797,-5.371,33.691,37.109,17.578,20.996
1586550075.801,-84.961,32.715,36.133,-7.812,15.137
1586550075.804,26.855,31.738,34.18,23.926,24.902
1586550075.808,159.668,33.203,35.156,65.918,51.27
1586550075.812,51.27,35.645,37.598,44.922,31.738
1586550075.816,-73.242,34.18,36.133,0,10.254
1586550075.82,-13.672,28.32,35.645,15.137,5.371
1586550075.824,134.277,27.344,32.715,66.895,7.324
1586550075.828,97.168,28.32,33.203,45.898,49.316
1586550075.832,-64.941,27.832,33.203,-13.672,23.926
1586550075.836,-41.504,27.832,32.715,-10.742,5.859
1586550075.84,110.84,27.832,35.156,41.504,34.668
1586550075.844,133.789,29.297,33.203,57.129,-0.488
1586550075.847,-38.086,29.785,33.691,7.812,-21.484
1586550075.851,-69.336,30.762,36.133,-6.348,2.93
1586550075.855,58.105,32.227,37.109,29.297,-42.48
1586550075.859,150.391,30.273,34.18,61.523,13.184
1586550075.863,14.648,30.273,34.18,18.555,60.547
1586550075.867,-76.172,31.738,37.109,-17.09,24.902
1586550075.871,18.066,31.738,35.156,14.648,12.695
1586550075.875,156.738,31.25,34.668,71.777,56.641
1586550075.879,61.035,34.18,35.156,52.734,81.543
1586550075.883,-77.148,32.715,35.156,-2.93,45.41
1586550075.886,-13.672,32.227,33.691,7.812,60.547
1586550075.89,141.113,35.156,30.273,65.918,73.73
1586550075.894,105.469,35.156,31.738,52.246,36.621
1586550075.898,-62.012,35.156,33.203,-16.113,9.766
1586550075.902,-49.805,34.668,32.227,-11.719,-32.715
1586550075.906,91.797,36.133,32.227,44.922,-13.184
1586550075.91,141.602,35.645,32.715,61.523,50.293
1586550075.914,-22.949,32.227,32.227,6.836,30.762
1586550075.918,-69.336,32.715,33.203,-13.672,-28.32
1586550075.922,55.664,33.203,30.762,26.367,22.461
1586550075.926,157.715,32.715,27.344,64.941,58.105
1586550075.929,33.691,33.203,31.25,29.297,34.668
1586550075.933,-73.242,33.691,34.18,-12.207,17.578
1586550075.937,9.766,35.156,31.25,8.789,4.883
1586550075.941,162.109,33.691,29.785,57.617,18.066
1586550075.945,84.961,32.715,33.203,36.133,33.691
1586550075.949,-76.172,32.715,32.227,-14.16,-7.812
1586550075.953,-44.434,31.25,32.227,-4.395,-11.23
1586550075.957,114.746,30.762,31.738,51.758,-6.348
1586550075.961,116.211,31.25,32.227,55.664,-37.598
1586550075.965,-54.688,31.25,34.18,-3.906,0
1586550075.969,-61.523,28.809,32.227,-11.719,30.273
1586550075.972,83.008,25.879,32.227,40.039,49.316
1586550075.976,149.902,27.344,30.762,66.406,38.574
1586550075.98,-9.766,28.809,30.273,14.16,13.184
1586550075.984,-77.637,28.32,29.785,-12.695,22.949
1586550075.988,38.086,29.785,29.297,20.996,23.438
1586550075.992,159.668,29.785,29.785,62.5,27.832
1586550075.996,40.039,30.273,30.273,30.273,33.203
1586550076,-80.078,31.738,29.297,-17.578,64.941
1586550076.004,-0.977,29.785,28.809,-1.465,65.918
1586550076.008,141.602,29.297,29.297,53.711,-0.977
1586550076.011,80.078,31.25,32.227,41.016,18.066
1586550076.015,-72.754,31.738,34.668,-11.23,15.137
1586550076.019,-41.992,29.297,33.203,-4.395,-65.43
1586550076.023,110.352,32.227,32.227,45.41,-36.133
1586550076.027,124.023,34.668,36.621,62.988,58.594
1586550076.031,-41.016,33.691,38.574,12.695,61.035
1586550076.035,-63.477,31.738,36.621,-7.812,1.953
1586550076.039,67.383,34.18,33.203,37.109,17.578
1586550076.043,146.484,34.18,32.715,67.383,85.449
1586550076.047,-1.465,30.762,36.621,19.531,37.109
1586550076.051,-80.566,31.738,37.598,-5.859,-13.672
1586550076.054,14.16,31.738,34.668,24.414,27.832
1586550076.058,144.043,27.832,33.691,70.801,67.871
1586550076.062,47.852,26.367,36.133,34.668,93.262
1586550076.066,-82.031,30.273,35.156,-21.484,57.617
1586550076.07,-22.461,31.25,34.668,-0.488,15.137
1586550076.074,127.441,29.785,36.133,60.059,36.133
1586550076.078,97.168,30.273,36.621,59.57,-12.695
1586550076.082,-62.012,30.762,38.574,-1.465,-25.879
1586550076.086,-43.945,35.156,37.598,-4.395,14.16
1586550076.09,103.516,35.156,36.621,52.734,-19.043
1586550076.094,139.648,33.203,37.109,67.871,-44.922
1586550076.097,-29.785,35.156,36.133,11.23,3.906
1586550076.101,-74.707,33.203,38.086,-1.953,13.672
1586550076.105,58.594,30.273,36.621,42.48,-23.438
1586550076.109,160.645,31.738,30.762,78.125,39.062
1586550076.113,27.344,32.715,32.227,32.715,64.453
1586550076.117,-66.406,32.715,35.645,-5.371,-36.133
1586550076.121,13.672,34.18,36.133,12.695,-1.953
1586550076.125,147.949,34.668,34.18,51.27,54.688
1586550076.129,70.312,33.203,34.18,30.273,57.129
1586550076.133,-73.242,32.715,33.691,-21.973,72.266
1586550076.136,-19.043,32.227,34.668,-6.348,29.297
1586550076.14,140.137,29.297,36.133,60.059,-8.301
1586550076.144,117.188,30.273,34.668,56.152,1.465
1586550076.148,-62.012,32.715,34.18,-5.371,10.742
1586550076.152,-58.105,28.809,35.645,-5.371,26.367
1586550076.156,85.938,27.344,35.645,42.48,14.648
1586550076.16,141.602,32.227,33.203,62.5,43.945
1586550076.164,-14.648,33.203,33.203,5.859,-0.977
1586550076.168,-74.219,32.227,34.18,-17.09,-41.992
1586550076.172,47.852,35.156,32.715,26.855,12.695
1586550076.176,154.785,35.645,33.691,71.777,16.113
1586550076.179,26.367,33.691,38.086,31.738,3.906
1586550076.183,-76.172,33.691,38.086,-16.113,-7.324
1586550076.187,6.348,33.203,36.133,18.555,-5.371
1586550076.191,156.738,33.691,35.156,77.637,25.879
1586550076.195,94.238,33.691,37.109,61.523,18.066
1586550076.199,-64.941,34.668,37.109,5.859,76.66
1586550076.203,-25.391,37.109,33.691,5.371,98.145
1586550076.207,132.324,33.691,32.715,57.617,58.105
1586550076.211,133.301,34.18,33.691,63.477,74.219
1586550076.215,-41.992,39.062,36.133,7.812,57.617
1586550076.219,-56.152,36.133,34.668,-6.836,24.902
1586550076.222,85.449,32.715,33.691,38.086,37.109
1586550076.226,150.879,31.738,33.203,68.848,12.695
1586550076.23,-8.789,29.785,31.738,17.578,-0.977
1586550076.234,-78.125,28.809,32.227,-11.23,-2.441
1586550076.238,31.738,29.297,30.273,21.973,30.762
1586550076.242,154.785,29.297,27.832,64.941,99.121
1586550076.246,42.48,27.832,30.273,26.367,32.227
1586550076.25,-85.938,26.367,35.156,-15.625,-34.18
1586550076.254,-16.602,26.367,35.156,10.254,-14.16
1586550076.258,131.348,24.902,31.738,60.547,4.883
1586550076.261,83.984,27.832,33.691,45.41,36.621
1586550076.265,-74.219,28.809,31.25,-15.137,66.895
1586550076.269,-54.688,26.855,28.32,-8.789,62.012
1586550076.273,90.332,28.32,31.738,43.457,76.172
1586550076.277,124.512,31.25,33.691,52.246,66.895
1586550076.281,-34.18,34.18,34.668,-0.977,25.391
1586550076.285,-68.848,32.715,37.109,-10.254,19.531
1586550076.289,59.082,31.25,36.133,37.109,-3.906
1586550076.293,147.461,30.762,35.156,69.336,-3.906
1586550076.297,6.348,30.762,34.18,21.484,21.484
1586550076.301,-75.195,28.809,33.203,-14.648,28.809
1586550076.304,22.949,29.785,33.203,15.137,18.555
1586550076.308,148.438,31.738,33.691,73.73,0.977
1586550076.312,61.035,32.715,35.645,53.711,11.23
1586550076.316,-59.082,31.738,35.645,5.371,-7.812
1586550076.32,-16.113,25.391,40.039,11.719,-42.969
1586550076.324,129.883,27.344,40.039,53.223,-0.488
1586550076.328,106.934,34.18,35.156,44.434,34.668
1586550076.332,-63.965,36.133,35.645,-18.555,-5.371
1586550076.336,-51.758,34.18,37.109,-24.902,39.062
1586550076.34,104.004,32.227,36.621,30.273,83.008
1586550076.344,149.414,34.18,35.156,56.641,56.641
