timestamps,TP9,AF7,AF8,TP10,Right AUX
1586550595.004,30.273,27.832,29.297,6.836,-50.293
1586550595.008,110.84,30.273,31.25,50.781,-8.789
1586550595.012,68.359,32.715,31.25,48.34,41.504
1586550595.015,-36.133,29.297,29.785,8.789,16.602
1586550595.019,-16.602,27.832,30.273,2.93,12.207
1586550595.023,68.359,32.227,29.785,37.109,46.875
1586550595.027,83.008,31.738,28.32,53.223,51.758
1586550595.031,-20.508,30.273,27.344,7.812,39.551
1586550595.035,-33.203,30.762,27.344,-1.465,10.254
1586550595.039,57.617,30.762,29.785,46.387,24.902
1586550595.043,104.004,33.203,28.32,78.125,2.93
1586550595.047,9.277,29.785,28.809,33.691,15.137
1586550595.051,-31.738,24.902,33.691,-11.719,74.707
1586550595.054,33.203,25.879,30.762,2.441,42.969
1586550595.058,95.703,26.367,27.832,39.551,42.48
1586550595.062,30.762,23.438,28.809,28.809,75.195
1586550595.066,-42.48,25.879,30.273,0,51.27
1586550595.07,13.184,30.762,28.32,9.766,33.691
1586550595.074,97.168,33.203,26.855,43.457,66.406
1586550595.078,72.266,32.715,28.32,43.945,47.363
1586550595.082,-24.414,33.203,30.273,3.906,18.066
1586550595.086,-1.465,34.668,33.203,2.93,-2.93
1586550595.09,85.938,34.668,35.156,43.457,-26.367
1586550595.094,94.238,33.203,34.668,60.059,-6.836
1586550595.097,-4.395,28.809,33.691,19.531,47.852
1586550595.101,-23.926,31.25,34.18,5.371,26.855
1586550595.105,49.316,39.062,36.133,36.621,5.859
1586550595.109,101.562,35.156,32.715,60.547,77.148
1586550595.113,15.625,29.297,29.297,23.926,84.961
1586550595.117,-40.039,29.785,28.32,-16.602,41.504
1586550595.121,21.484,29.785,31.738,7.324,26.367
1586550595.125,102.051,28.809,33.691,50.781,59.57
1586550595.129,50.781,28.32,32.227,42.969,56.641
1586550595.133,-34.18,27.832,32.715,12.207,-10.254
1586550595.137,0.977,26.855,33.691,15.137,2.441
1586550595.14,82.031,27.832,34.668,46.387,14.648
1586550595.144,82.031,25.879,37.598,48.34,-6.836
1586550595.148,-20.996,24.414,37.109,5.371,3.906
1586550595.152,-15.625,29.785,35.156,-1.953,5.371
1586550595.156,76.66,28.32,33.691,36.133,26.855
1586550595.16,100.098,27.344,30.273,61.523,41.992
1586550595.164,-9.277,30.762,33.203,21.484,40.527
1586550595.168,-33.203,32.227,35.645,3.906,-2.441
1586550595.172,40.527,34.18,34.18,31.25,20.02
1586550595.176,100.586,32.715,33.203,61.523,55.664
1586550595.179,31.738,33.203,33.691,38.574,3.906
1586550595.183,-36.621,34.18,30.273,-1.465,2.441
1586550595.187,18.066,32.715,28.809,9.766,7.812
1586550595.191,99.121,31.25,30.273,54.688,70.312
1586550595.195,54.688,31.25,28.809,52.734,47.852
1586550595.199,-32.715,31.25,30.762,15.625,31.738
1586550595.203,-2.441,31.25,32.715,17.578,90.332
1586550595.207,85.938,32.715,32.227,50.293,16.113
1586550595.211,93.75,31.25,35.645,60.059,18.066
1586550595.215,-7.324,35.645,35.645,22.461,31.738
1586550595.219,-14.648,32.227,35.645,6.836,-33.203
1586550595.222,62.012,26.855,35.156,36.621,-27.832
1586550595.226,102.051,34.668,33.203,63.477,23.438
1586550595.23,11.719,39.062,32.227,24.902,29.785
1586550595.234,-34.18,36.621,31.25,-5.859,-24.902
1586550595.238,39.551,34.668,30.273,18.555,-18.555
1586550595.242,123.535,33.203,28.32,58.105,48.828
1586550595.246,48.34,34.18,26.855,39.551,39.551
1586550595.25,-36.621,35.156,26.367,0,-30.762
1586550595.254,21.973,36.133,27.832,10.254,-6.348
1586550595.258,114.746,39.551,29.297,49.805,34.668
1586550595.262,73.242,38.086,30.762,60.547,0.488
1586550595.265,-29.785,35.645,33.691,20.996,-8.789
1586550595.269,-1.953,36.133,32.715,-3.418,48.828
1586550595.273,81.055,32.227,32.227,41.992,19.043
1586550595.277,86.914,32.227,33.203,69.336,-14.16
1586550595.281,-15.625,37.109,32.227,14.648,21.973
1586550595.285,-16.113,35.156,28.809,-7.812,19.043
1586550595.289,71.777,35.156,24.902,26.367,8.301
1586550595.293,106.934,35.645,27.832,60.059,0.977
1586550595.297,14.648,35.156,34.18,32.227,10.254
1586550595.301,-21.973,34.18,30.762,0.977,-5.859
1586550595.304,38.574,32.227,25.879,10.742,-12.207
1586550595.308,98.145,28.809,27.832,53.223,29.297
1586550595.312,43.457,27.832,32.715,45.898,-16.602
1586550595.316,-40.527,29.785,34.18,-2.441,22.949
1586550595.32,-3.906,30.273,29.785,1.465,41.016
1586550595.324,85.938,28.809,28.32,53.711,4.883
1586550595.328,67.871,28.809,30.273,59.082,48.34
1586550595.332,-28.809,29.785,28.809,8.301,70.801
1586550595.336,-1.465,31.738,26.855,10.254,34.18
1586550595.34,78.125,32.715,30.762,50.293,15.625
1586550595.344,89.844,31.738,34.18,64.453,-8.789
1586550595.347,-7.324,29.785,32.715,24.414,11.23
1586550595.351,-37.598,29.785,32.715,4.883,-34.18
1586550595.355,30.762,28.32,29.785,28.32,-31.738
1586550595.359,94.727,29.297,28.809,50.293,87.402
1586550595.363,21.484,34.18,33.691,24.414,61.523
1586550595.367,-34.18,32.715,35.645,-9.277,56.152
1586550595.371,26.367,27.832,33.691,9.277,33.203
1586550595.375,101.074,29.297,29.785,56.152,-14.16
1586550595.379,56.641,32.715,31.25,52.246,3.418
1586550595.383,-31.738,31.738,34.668,16.602,36.133
1586550595.387,-1.953,31.738,33.203,19.043,78.613
1586550595.39,83.984,32.227,30.762,52.734,61.523
1586550595.394,78.613,33.203,33.203,56.641,90.332
1586550595.398,-17.578,35.645,36.133,9.766,56.641
1586550595.402,-11.23,31.738,28.809,-2.441,19.531
1586550595.406,62.988,28.32,24.414,30.762,36.133
1586550595.41,93.262,29.297,29.785,51.27,19.043
1586550595.414,1.465,28.32,29.785,14.16,11.23
1586550595.418,-30.273,29.785,29.785,-9.766,29.785
1586550595.422,32.227,31.738,30.273,25.391,54.199
1586550595.426,93.75,34.18,30.762,57.617,97.168
1586550595.429,36.621,35.156,34.18,28.32,89.844
1586550595.433,-26.367,33.691,36.133,-0.977,20.02
1586550595.437,17.09,34.18,33.203,17.578,62.5
1586550595.441,93.75,35.645,30.762,54.199,71.777
1586550595.445,54.199,35.156,29.297,43.945,38.086
1586550595.449,-41.016,34.668,31.25,6.348,83.984
1586550595.453,-12.207,34.668,31.738,10.742,36.133
1586550595.457,74.707,33.203,23.438,46.875,-9.277
1586550595.461,90.82,34.18,22.949,53.711,57.617
1586550595.465,-1.953,35.156,27.832,1.953,30.762
1586550595.469,-16.113,33.203,33.691,-12.207,29.297
1586550595.472,56.641,34.668,32.227,23.438,43.457
1586550595.476,97.168,35.645,27.832,53.223,47.363
1586550595.48,14.648,33.691,29.785,18.066,27.832
1586550595.484,-20.996,32.715,31.25,-2.441,24.902
1586550595.488,39.551,32.227,30.273,21.973,52.246
1586550595.492,112.793,29.785,28.809,57.617,61.035
1586550595.496,56.641,27.344,30.273,47.363,27.344
1586550595.5,-26.367,32.227,33.203,9.766,46.875
1586550595.504,7.812,33.691,34.668,14.648,71.777
1586550595.508,97.168,36.133,33.691,51.758,53.223
1586550595.512,76.172,39.551,33.691,57.129,39.062
1586550595.515,-24.902,35.645,33.203,10.742,-20.02
1586550595.519,0,35.645,33.203,10.254,-14.16
1586550595.523,82.031,33.203,33.203,51.758,93.262
1586550595.527,97.168,30.762,28.809,60.059,84.473
1586550595.531,-2.441,33.203,26.367,14.648,-23.438
1586550595.535,-22.461,29.297,30.273,3.906,-11.719
1586550595.539,53.711,29.297,29.297,35.156,-11.23
1586550595.543,106.445,34.18,25.879,59.57,-16.113
1586550595.547,23.926,32.715,27.832,32.227,22.949
1586550595.551,-34.668,29.785,33.203,8.789,41.504
1586550595.554,27.832,33.691,33.203,25.391,23.438
1586550595.558,109.375,36.621,32.715,56.641,20.996
1586550595.562,43.457,35.645,33.691,36.621,66.406
1586550595.566,-45.41,30.762,31.738,-7.812,66.406
1586550595.57,1.465,31.738,31.25,-6.348,19.043
1586550595.574,84.473,34.668,31.738,37.109,18.066
1586550595.578,77.148,38.574,34.668,54.199,40.527
1586550595.582,-20.996,39.551,36.133,10.742,33.691
1586550595.586,-21.973,36.133,30.762,-4.395,3.906
1586550595.59,66.895,37.109,28.809,31.738,10.254
1586550595.594,103.027,36.621,29.297,57.617,35.645
1586550595.597,1.953,36.621,26.855,21.484,5.859
1586550595.601,-29.785,38.574,25.391,-4.395,8.301
1586550595.605,42.969,37.109,27.832,27.832,87.891
1586550595.609,104.004,35.645,28.809,64.453,100.098
1586550595.613,26.367,37.598,29.785,34.18,35.156
1586550595.617,-35.645,38.086,32.227,-4.883,-14.16
1586550595.621,20.996,35.645,30.273,13.672,4.883
1586550595.625,94.238,36.621,27.832,55.664,65.918
1586550595.629,52.246,37.598,34.668,40.527,49.316
1586550595.633,-34.668,36.133,37.109,-0.488,-17.09
1586550595.637,-1.465,35.156,35.645,2.93,14.648
1586550595.64,82.52,31.25,34.668,34.668,37.109
1586550595.644,75.195,30.762,35.645,47.363,63.965
1586550595.648,-25.391,32.227,37.109,10.254,34.668
1586550595.652,-17.09,32.715,34.18,5.859,16.602
1586550595.656,68.359,29.785,29.297,37.109,0
1586550595.66,104.492,25.879,29.785,62.988,14.648
1586550595.664,16.113,28.32,36.133,35.645,41.016
1586550595.668,-20.02,30.273,38.086,10.742,-21.484
1586550595.672,42.969,31.25,30.273,33.203,3.418
1586550595.676,114.258,35.645,28.809,64.941,51.27
1586550595.679,46.387,35.645,36.621,42.48,34.18
1586550595.683,-31.738,28.32,35.156,4.395,72.266
1586550595.687,19.531,25.879,33.691,18.066,12.207
1586550595.691,102.539,26.855,31.738,58.594,-10.742
1586550595.695,61.523,27.344,32.715,57.617,96.68
1586550595.699,-34.668,27.344,35.156,17.578,40.527
1586550595.703,-8.789,30.762,32.715,7.812,-25.879
1586550595.707,66.406,31.738,30.762,41.504,-1.465
1586550595.711,80.078,32.715,30.273,55.664,-34.668
1586550595.715,-15.137,33.203,31.738,10.742,-45.41
1586550595.719,-20.996,31.738,29.785,3.418,-23.926
1586550595.722,61.035,29.297,28.809,39.062,-15.625
1586550595.726,101.562,28.809,30.273,62.012,28.809
1586550595.73,20.508,32.227,30.273,35.156,16.113
1586550595.734,-22.461,32.715,34.18,9.766,-67.871
1586550595.738,33.691,29.785,35.645,23.926,-14.648
1586550595.742,100.586,30.762,34.668,59.082,93.262
1586550595.746,35.645,28.32,36.621,41.504,103.516
1586550595.75,-39.062,27.344,33.691,-0.488,83.496
1586550595.754,3.906,31.25,31.738,4.395,57.129
1586550595.758,82.52,30.762,31.25,43.945,29.785
1586550595.762,64.941,32.227,31.738,41.992,24.902
1586550595.765,-28.809,32.227,34.668,-0.488,7.324
1586550595.769,-4.883,28.32,34.668,-0.488,16.113
1586550595.773,80.078,30.762,32.227,34.668,17.09
1586550595.777,89.844,33.691,29.785,49.316,58.594
1586550595.781,-19.043,32.227,30.762,9.277,76.66
1586550595.785,-37.598,31.25,30.762,-4.883,15.137
1586550595.789,50.293,36.133,30.762,27.344,46.875
1586550595.793,104.492,38.086,33.691,58.594,81.543
1586550595.797,18.066,33.203,33.691,29.785,21.973
1586550595.801,-36.621,31.25,28.32,-0.488,34.18
1586550595.804,20.996,27.344,27.832,14.648,104.004
1586550595.808,95.703,27.344,29.297,52.734,99.121
1586550595.812,43.457,31.738,25.391,44.922,21.973
1586550595.816,-42.48,34.668,29.297,-4.395,-21.973
1586550595.82,-2.93,36.133,34.18,-6.348,6.836
1586550595.824,78.613,34.18,32.715,37.598,27.832
1586550595.828,68.359,35.645,30.273,42.48,14.648
1586550595.832,-29.297,33.691,30.273,-2.93,11.719
1586550595.836,-23.926,31.738,30.273,-6.836,10.742
1586550595.84,61.035,34.668,30.273,26.367,76.172
1586550595.844,94.238,31.738,31.738,54.199,93.75
1586550595.847,0.977,33.203,30.273,25.879,30.762
1586550595.851,-29.785,34.668,30.273,2.93,13.672
1586550595.855,40.039,33.203,30.273,24.414,1.953
1586550595.859,102.539,31.738,29.297,55.664,34.668
1586550595.863,32.715,32.227,28.32,30.762,111.328
1586550595.867,-29.297,31.25,26.367,-1.953,92.285
1586550595.871,26.855,28.809,25.879,17.578,41.016
1586550595.875,104.98,30.762,27.344,55.176,48.828
1586550595.879,61.523,30.762,29.785,45.41,41.992
1586550595.883,-34.18,32.715,29.297,8.301,-31.738
1586550595.887,-1.465,31.25,28.809,17.09,-13.184
1586550595.89,89.355,33.691,29.297,55.176,18.555
1586550595.894,91.309,35.645,27.832,61.523,3.418
1586550595.898,-12.695,32.715,28.32,12.695,50.781
1586550595.902,-12.207,30.273,28.32,-1.953,15.137
1586550595.906,61.523,27.344,30.762,31.738,-4.883
1586550595.91,94.238,29.297,31.738,56.152,15.137
1586550595.914,5.859,27.832,30.762,19.531,21.973
1586550595.918,-35.645,26.367,30.273,-4.395,30.273
1586550595.922,35.645,27.344,30.762,22.461,11.23
1586550595.926,103.516,29.297,31.738,51.27,29.785
1586550595.929,36.133,29.297,33.691,21.484,-22.461
1586550595.933,-34.18,25.879,34.668,-16.113,-49.805
1586550595.937,8.789,25.391,30.762,4.395,-5.859
1586550595.941,92.773,24.414,28.32,48.34,40.527
1586550595.945,65.918,23.926,29.297,47.852,31.25
1586550595.949,-35.156,25.391,30.762,7.812,-11.719
1586550595.953,-14.16,24.414,31.738,5.371,35.645
1586550595.957,67.871,21.973,31.738,42.48,20.508
1586550595.961,83.496,20.996,32.227,55.176,32.227
1586550595.965,-10.254,25.879,30.762,3.418,45.41
1586550595.969,-19.043,28.809,29.785,-12.695,68.359
1586550595.972,63.477,24.902,30.762,27.832,95.215
1586550595.976,107.422,29.785,28.32,59.082,90.332
1586550595.98,13.672,33.203,29.297,28.809,101.074
1586550595.984,-33.203,30.762,32.227,9.277,46.875
1586550595.988,34.668,31.738,31.738,33.691,-11.23
1586550595.992,109.863,30.273,33.691,65.918,14.16
1586550595.996,47.852,29.785,36.133,40.039,35.156
1586550596,-33.203,32.227,34.18,-8.301,19.531
1586550596.004,6.836,33.203,31.25,-0.977,32.715
1586550596.008,88.379,33.691,32.715,38.574,28.32
1586550596.012,71.289,32.715,33.203,40.527,11.23
1586550596.015,-23.926,33.203,28.809,1.953,20.508
1586550596.019,-7.812,33.691,29.785,-1.953,13.672
1586550596.023,74.707,32.715,34.18,29.297,12.695
1586550596.027,94.238,30.762,35.156,52.246,61.035
1586550596.031,-11.23,30.273,36.621,18.066,53.711
1586550596.035,-30.762,29.785,36.621,-8.301,25.879
1586550596.039,51.758,28.809,32.227,17.578,41.992
1586550596.043,114.258,30.273,30.762,53.223,43.457
1586550596.047,27.832,31.738,33.203,33.691,-23.438
1586550596.051,-40.527,28.809,32.227,1.465,-60.547
1586550596.054,22.949,30.762,30.273,16.113,-25.879
1586550596.058,108.398,35.645,29.297,59.082,14.16
1586550596.062,57.617,33.691,29.785,45.41,49.805
1586550596.066,-36.621,28.32,30.273,3.906,67.871
1586550596.07,3.418,29.785,29.785,12.207,32.227
1586550596.074,91.309,32.715,33.203,46.875,14.16
1586550596.078,79.102,31.25,33.203,47.363,64.941
1586550596.082,-17.09,31.738,29.785,9.277,79.102
1586550596.086,-4.883,31.25,29.785,4.883,50.293
1586550596.09,72.266,34.18,29.297,37.598,1.953
1586550596.094,102.539,37.109,29.297,61.523,34.668
1586550596.097,3.906,33.203,33.203,21.484,18.066
1586550596.101,-26.367,32.715,34.18,-3.906,26.367
1586550596.105,55.176,31.25,32.715,27.832,67.871
1586550596.109,116.211,32.227,33.691,62.012,40.039
1586550596.113,35.645,34.668,33.691,35.156,20.996
1586550596.117,-27.344,33.203,30.762,0.977,-17.578
1586550596.121,34.668,32.227,29.297,17.578,-45.898
1586550596.125,106.445,32.715,28.32,55.664,29.785
1586550596.129,61.035,32.715,30.273,48.828,27.344
1586550596.133,-29.785,32.227,32.227,7.812,-25.391
1586550596.137,-2.441,32.715,30.273,7.812,16.113
1586550596.14,87.891,32.715,32.715,43.457,34.668
1586550596.144,95.703,32.227,35.156,54.199,46.875
1586550596.148,-14.648,33.691,33.203,14.16,83.008
1586550596.152,-24.902,32.715,33.203,2.441,63.965
1586550596.156,62.012,29.785,32.227,32.227,25.879
1586550596.16,111.328,31.25,29.297,56.641,64.453
1586550596.164,20.508,31.25,30.762,20.508,68.848
1586550596.168,-34.668,27.344,31.25,-9.277,3.906
1586550596.172,14.16,27.344,29.785,14.648,27.344
1586550596.176,87.402,31.25,30.762,60.059,22.949
1586550596.179,32.227,32.227,34.18,39.062,-11.719
1586550596.183,-44.922,31.25,33.691,-3.906,-32.227
1586550596.187,2.441,29.785,32.715,14.648,-17.578
1586550596.191,88.867,29.785,33.691,48.828,20.02
1586550596.195,73.73,34.18,30.762,48.828,17.09
1586550596.199,-26.855,34.668,26.855,12.207,50.781
1586550596.203,-17.578,30.273,29.297,13.672,4.395
1586550596.207,71.289,30.273,30.273,48.828,20.996
1586550596.211,99.121,31.738,28.32,61.035,67.871
1586550596.215,10.254,31.25,31.738,18.555,46.387
1586550596.219,-13.184,30.762,31.738,0,42.48
1586550596.222,62.012,27.832,30.762,36.133,13.184
1586550596.226,105.469,26.367,30.273,71.777,2.441
1586550596.23,9.766,32.227,26.367,43.457,1.465
1586550596.234,-41.504,31.25,29.297,16.602,7.812
1586550596.238,9.766,24.902,32.715,24.902,36.133
1586550596.242,89.844,27.344,34.18,54.199,42.48
1586550596.246,53.223,30.762,36.133,42.48,32.715
1586550596.25,-31.738,29.297,33.691,3.418,50.293
1586550596.254,1.465,29.297,33.691,13.672,47.363
1586550596.258,92.285,29.785,32.715,55.176,26.367
1586550596.262,83.496,30.762,31.738,60.059,26.367
1586550596.265,-20.02,30.273,32.715,16.113,64.453
1586550596.269,-12.695,30.273,32.715,2.93,43.457
1586550596.273,71.289,30.273,30.762,38.574,32.227
1586550596.277,97.656,29.785,30.273,60.059,86.426
1586550596.281,-2.441,30.273,33.203,20.02,62.5
1586550596.285,-28.809,29.297,29.297,1.465,25.391
1586550596.289,49.805,31.738,25.391,32.227,29.785
1586550596.293,109.375,33.203,23.926,63.477,43.945
1586550596.297,32.227,30.273,23.438,36.133,67.383
1586550596.301,-30.762,30.273,27.832,5.371,58.594
1586550596.304,22.461,30.273,30.762,18.555,5.859
1586550596.308,101.562,32.227,30.762,48.828,-12.207
1586550596.312,54.199,34.18,30.273,31.738,44.434
1586550596.316,-28.809,34.668,31.738,-6.348,48.828
1586550596.32,3.418,31.25,34.18,2.441,49.316
1586550596.324,72.266,30.762,35.156,45.898,-5.371
1586550596.328,68.848,33.691,35.645,59.57,-39.062
1586550596.332,-28.32,27.832,28.809,12.695,-44.922
1586550596.336,-23.926,28.32,24.414,-1.465,-24.414
1586550596.34,57.129,32.715,28.32,31.25,26.855
1586550596.344,90.82,25.391,31.25,60.547,0
1586550596.347,8.301,27.832,32.227,31.738,23.438
1586550596.351,-16.113,37.598,32.227,4.395,20.996
1586550596.355,46.875,31.25,29.785,26.855,68.359
1586550596.359,99.121,27.832,31.25,64.453,23.926
1586550596.363,31.25,30.273,34.18,39.062,-21.973
1586550596.367,-36.621,28.32,33.203,-0.977,8.301
1586550596.371,11.23,28.32,31.738,6.348,19.043
1586550596.375,84.473,29.785,30.762,41.504,44.434
1586550596.379,50.781,27.832,32.715,41.504,34.18
1586550596.383,-36.621,29.297,32.227,-4.883,1.953
1586550596.387,-7.812,28.809,27.832,-3.906,-44.922
1586550596.39,74.707,25.879,30.273,33.691,9.277
1586550596.394,81.055,27.832,33.203,47.852,39.551
1586550596.398,-14.648,29.785,32.715,7.812,-36.133
1586550596.402,-20.02,30.762,33.691,-10.254,-13.184
1586550596.406,60.059,32.715,34.18,21.973,50.293
1586550596.41,110.352,34.18,32.715,54.688,19.043
1586550596.414,20.02,33.203,35.156,27.344,-2.441
1586550596.418,-31.738,31.25,35.645,2.441,5.371
1586550596.422,30.762,28.809,29.785,25.391,45.41
1586550596.426,103.516,28.32,28.32,61.035,85.938
1586550596.429,45.41,31.738,32.227,41.016,34.18
1586550596.433,-33.691,30.762,33.203,2.93,-13.184
1586550596.437,8.789,29.297,29.785,13.184,45.41
1586550596.441,82.52,27.344,30.273,42.969,46.387
1586550596.445,59.57,25.391,34.18,41.992,9.277
1586550596.449,-28.32,28.809,35.645,3.906,56.152
1586550596.453,-7.324,31.25,33.203,0,20.996
1586550596.457,81.055,29.297,32.715,41.992,15.625
1586550596.461,102.539,29.785,34.668,60.547,9.766
1586550596.465,1.953,31.738,30.273,14.648,-11.23
1586550596.469,-20.996,31.738,27.344,4.883,25.391
1586550596.472,46.387,35.645,31.25,37.598,16.602
1586550596.476,93.75,35.645,31.738,59.082,31.738
1586550596.48,12.207,32.227,31.738,27.344,6.348
1586550596.484,-35.156,33.203,29.785,-4.395,-17.578
1586550596.488,31.738,34.18,30.762,17.578,31.738
1586550596.492,110.352,35.156,33.691,62.5,83.984
1586550596.496,62.012,35.645,34.668,48.34,90.332
1586550596.5,-25.879,32.715,34.18,11.719,33.691
1586550596.504,0,34.18,34.18,20.508,-11.719
1586550596.508,78.125,34.668,34.668,56.152,-14.648
1586550596.512,76.66,34.18,31.25,59.57,39.062
1586550596.515,-19.043,34.18,29.785,7.324,26.367
1586550596.519,-16.602,29.297,30.762,-3.906,2.441
1586550596.523,66.406,28.32,31.738,41.504,-0.977
1586550596.527,105.957,32.227,31.25,69.824,-26.367
1586550596.531,6.836,31.25,30.273,23.438,21.484
1586550596.535,-28.809,29.785,31.25,-6.836,59.082
1586550596.539,43.945,31.738,32.715,22.949,31.738
1586550596.543,106.934,32.715,34.668,61.523,-4.395
1586550596.547,34.18,33.203,34.18,39.551,37.109
1586550596.551,-28.32,30.273,35.645,4.883,28.32
1586550596.554,30.762,28.809,35.645,17.578,4.395
1586550596.558,116.699,32.715,34.18,57.617,16.602
1586550596.562,84.473,32.227,38.086,52.734,14.648
1586550596.566,-9.766,33.203,38.086,4.883,6.348
1586550596.57,12.207,36.621,33.691,12.695,-19.531
1586550596.574,92.773,31.738,35.156,57.617,15.137
1586550596.578,84.473,30.762,33.203,66.406,49.805
1586550596.582,-19.043,32.715,33.691,21.973,17.578
1586550596.586,-21.484,30.762,34.668,1.465,-0.488
1586550596.59,57.617,30.273,31.25,33.691,1.953
1586550596.594,94.238,29.297,30.273,59.57,16.602
1586550596.597,0.977,30.273,30.762,17.09,17.09
1586550596.601,-31.738,31.738,31.738,-4.395,7.324
1586550596.605,36.133,28.32,32.227,22.461,30.273
1586550596.609,93.75,29.297,30.762,57.129,65.918
1586550596.613,24.414,29.785,31.738,36.133,62.012
1586550596.617,-41.504,25.391,32.715,-0.977,41.016
1586550596.621,9.766,26.855,32.715,10.742,33.691
1586550596.625,90.82,31.25,32.227,51.758,94.727
1586550596.629,69.824,32.715,30.273,50.293,79.102
1586550596.633,-16.113,32.715,28.809,2.441,2.441
1586550596.637,14.648,33.203,32.227,5.371,54.688
1586550596.64,95.703,34.18,34.18,48.828,88.867
1586550596.644,99.609,31.25,32.715,62.988,43.457
1586550596.648,-8.301,30.273,32.227,17.09,49.805
1586550596.652,-26.367,29.297,34.18,-1.953,53.223
1586550596.656,46.387,28.32,34.668,29.297,31.25
1586550596.66,89.355,32.715,32.715,57.617,-4.883
1586550596.664,6.348,34.668,34.18,30.273,10.254
1586550596.668,-37.598,32.715,35.156,-1.465,30.762
1586550596.672,30.273,33.691,33.691,12.695,42.969
1586550596.676,101.562,33.691,30.762,45.898,5.859
1586550596.679,36.133,29.785,29.297,30.273,5.371
1586550596.683,-43.945,29.297,29.785,-2.441,84.961
1586550596.687,0,30.273,31.25,2.441,77.637
1586550596.691,88.867,32.227,28.32,42.969,59.57
1586550596.695,83.008,31.25,28.809,52.734,-0.488
1586550596.699,-12.695,30.273,34.18,10.254,-38.086
1586550596.703,-5.371,30.762,31.738,-0.977,22.949
1586550596.707,73.73,33.203,30.273,33.691,57.617
1586550596.711,98.145,34.18,33.203,60.059,61.035
1586550596.715,1.953,33.691,29.785,22.949,23.926
1586550596.719,-20.996,30.762,28.32,0.977,55.664
1586550596.722,48.34,28.32,30.273,31.25,64.453
1586550596.726,103.027,32.227,29.297,65.918,-19.531
1586550596.73,23.438,32.227,30.762,40.039,-21.973
1586550596.734,-37.109,27.832,30.762,10.742,37.109
1586550596.738,17.578,26.855,31.738,28.809,34.18
1586550596.742,88.867,26.367,32.715,58.105,31.738
1586550596.746,35.156,25.391,32.227,41.016,98.145
1586550596.75,-42.48,26.367,30.762,2.441,62.5
1586550596.754,4.395,26.855,27.832,4.395,32.715
1586550596.758,80.566,23.926,26.367,41.016,52.734
1586550596.762,70.312,24.414,26.855,45.898,56.152
1586550596.765,-22.461,27.344,29.297,0.977,27.832
1586550596.769,-20.02,27.832,32.227,-6.836,-43.457
1586550596.773,60.547,30.762,30.762,33.691,-8.301
1586550596.777,98.633,34.18,26.367,60.059,24.902
1586550596.781,0.977,32.227,26.367,20.02,16.113
1586550596.785,-34.668,30.273,25.391,-6.348,23.438
1586550596.789,44.922,30.762,25.879,19.043,-23.926
1586550596.793,112.793,31.25,27.344,54.688,46.875
1586550596.797,38.574,33.691,29.785,38.086,59.57
1586550596.801,-29.785,30.762,29.785,4.883,21.973
1586550596.804,20.02,24.414,25.391,8.789,37.109
1586550596.808,103.516,26.855,30.273,47.852,9.766
1586550596.812,76.172,30.273,33.203,42.969,10.254
1586550596.816,-20.02,27.832,27.344,0,-16.113
1586550596.82,-2.93,25.391,23.438,4.883,0.488
1586550596.824,83.984,23.438,26.855,43.457,55.176
1586550596.828,97.656,28.809,30.762,55.664,53.711
1586550596.832,-8.301,37.109,29.785,10.742,35.645
1586550596.836,-27.344,38.086,28.32,3.906,20.02
1586550596.84,49.805,34.668,30.273,32.715,33.691
1586550596.844,95.215,32.715,29.297,53.223,56.641
1586550596.847,4.883,34.668,29.785,25.879,36.133
1586550596.851,-36.621,34.18,28.809,-5.859,-5.859
1586550596.855,41.016,31.738,28.32,17.09,-2.93
1586550596.859,111.816,33.203,29.297,61.523,51.27
1586550596.863,44.922,32.715,29.785,45.41,50.293
1586550596.867,-36.621,30.273,32.227,-0.488,-16.113
1586550596.871,7.324,29.297,33.691,7.324,34.18
1586550596.875,92.285,29.297,33.691,52.734,39.062
1586550596.879,72.266,30.762,32.227,54.199,33.203
1586550596.883,-24.414,29.785,33.203,15.137,17.09
1586550596.887,-11.719,27.344,36.133,19.531,-23.926
1586550596.89,72.266,27.344,35.645,51.758,40.039
1586550596.894,86.914,30.762,32.227,53.223,86.426
1586550596.898,-12.695,31.738,31.738,5.371,33.691
1586550596.902,-25.879,30.273,28.809,-9.277,23.926
1586550596.906,57.617,29.785,27.832,21.973,31.738
1586550596.91,112.793,31.25,31.738,49.805,65.918
1586550596.914,24.414,29.785,34.18,18.066,44.434
1586550596.918,-33.203,27.832,33.203,-9.766,1.953
1586550596.922,24.902,26.855,32.227,12.695,37.109
1586550596.926,104.492,28.32,32.715,52.246,49.316
1586550596.929,52.734,30.762,31.738,36.621,-3.418
1586550596.933,-30.273,29.297,29.297,-5.371,-36.621
1586550596.937,14.648,27.832,26.855,10.742,20.02
1586550596.941,98.145,27.832,27.832,51.27,57.129
1586550596.945,83.984,30.762,32.227,57.129,28.32
1586550596.949,-17.09,32.715,36.133,17.578,43.457
1586550596.953,-9.766,31.25,37.109,3.418,72.266
1586550596.957,73.73,30.273,32.715,37.598,20.02
1586550596.961,100.098,29.297,32.715,63.477,-23.438
1586550596.965,5.371,29.297,34.668,23.438,-31.738
1586550596.969,-20.02,30.762,36.133,1.465,-20.02
1586550596.972,53.223,32.715,35.645,34.668,72.266
1586550596.976,111.816,32.227,35.645,67.871,88.379
1586550596.98,36.621,28.32,35.645,38.574,23.438
1586550596.984,-23.926,28.809,37.109,5.859,-4.395
1586550596.988,27.344,33.691,34.668,19.043,-1.953
1586550596.992,103.516,34.18,30.273,57.617,-1.953
1586550596.996,58.105,30.273,35.645,46.875,13.184
1586550597,-36.621,29.785,39.062,6.348,-1.953
1586550597.004,-8.789,32.227,33.691,12.695,16.113
1586550597.008,76.172,31.25,29.785,51.758,80.566
1586550597.012,72.266,31.25,32.715,57.617,81.543
1586550597.015,-31.25,32.227,35.156,14.648,21.973
1586550597.019,-25.879,32.227,33.203,6.348,0
1586550597.023,61.035,33.203,31.25,36.621,54.688
1586550597.027,98.145,35.156,32.227,56.152,70.312
1586550597.031,3.418,33.203,35.156,20.508,36.621
1586550597.035,-34.668,32.227,36.621,1.465,-26.855
1586550597.039,44.922,34.668,35.645,29.297,-33.691
1586550597.043,115.234,36.133,35.645,61.035,60.059
1586550597.047,39.062,35.156,36.133,34.668,74.707
1586550597.051,-29.785,32.715,34.18,-0.977,67.871
1586550597.054,22.461,31.25,30.762,16.602,47.363
1586550597.058,93.75,33.203,27.832,51.758,24.414
1586550597.062,48.34,39.551,25.879,38.574,49.805
1586550597.066,-44.434,35.645,28.809,-2.441,-21.973
1586550597.07,-18.066,32.227,32.715,-3.906,-65.43
1586550597.074,62.5,34.668,31.25,32.715,-21.973
1586550597.078,75.684,35.156,32.227,46.387,27.832
1586550597.082,-20.508,34.18,32.715,3.906,11.23
1586550597.086,-22.461,31.738,28.32,-7.324,20.02
1586550597.09,59.082,31.738,29.297,21.973,41.992
1586550597.094,99.121,31.738,30.273,46.387,47.363
1586550597.097,9.277,31.25,31.738,20.508,45.898
1586550597.101,-37.598,30.762,32.227,-6.836,36.133
1586550597.105,24.902,29.785,30.273,11.23,54.199
1586550597.109,101.074,29.297,28.32,52.734,56.641
1586550597.113,46.387,31.25,29.785,38.086,63.965
1586550597.117,-34.668,29.785,31.25,-8.301,-1.953
1586550597.121,11.719,28.32,26.367,1.953,-7.812
1586550597.125,91.797,28.32,26.855,47.363,71.777
1586550597.129,71.777,26.855,31.25,46.875,36.621
1586550597.133,-15.625,29.785,30.273,6.348,1.953
1586550597.137,-12.695,29.785,32.227,9.277,23.438
1586550597.14,60.547,25.879,31.738,46.387,43.457
1586550597.144,82.52,25.879,28.32,62.012,65.43
1586550597.148,-14.16,28.32,30.762,10.742,20.996
1586550597.152,-32.715,26.367,31.738,-12.695,16.113
1586550597.156,47.363,27.344,30.273,25.391,71.777
1586550597.16,108.398,29.785,29.785,52.734,24.414
1586550597.164,28.809,30.762,31.738,21.484,13.184
1586550597.168,-25.879,30.762,34.668,1.465,19.043
1586550597.172,27.344,31.25,36.133,19.531,8.789
1586550597.176,94.238,33.691,36.621,46.875,-6.836
1586550597.179,44.922,34.668,36.133,36.621,49.316
1586550597.183,-34.668,33.691,34.668,0.977,38.574
1586550597.187,-0.488,33.691,33.691,8.789,1.953
1586550597.191,86.426,33.691,32.715,54.199,73.242
1586550597.195,85.938,36.133,31.25,58.594,48.828
1586550597.199,-17.578,36.621,32.227,9.277,0
1586550597.203,-18.555,35.645,30.762,6.348,39.062
1586550597.207,62.988,35.156,30.273,44.922,66.406
1586550597.211,89.355,32.715,32.227,60.547,93.75
1586550597.215,-3.906,30.273,31.25,22.949,13.184
1586550597.219,-24.902,33.203,29.297,2.93,-18.066
1586550597.222,48.34,33.203,28.32,23.438,57.617
1586550597.226,109.375,29.297,27.832,59.57,32.715
1586550597.23,36.133,31.738,30.273,41.016,46.875
1586550597.234,-27.344,33.203,31.25,3.418,78.125
1586550597.238,25.879,31.25,31.25,15.625,43.945
1586550597.242,104.492,32.715,32.227,51.27,44.434
1586550597.246,62.012,31.738,32.227,41.016,89.355
1586550597.25,-26.855,30.273,30.762,6.836,42.969
1586550597.254,4.395,31.25,32.715,16.602,26.367
1586550597.258,80.566,30.762,31.738,45.41,54.688
1586550597.262,77.637,30.762,31.738,54.199,37.598
1586550597.265,-20.02,30.273,34.668,17.09,18.555
1586550597.269,-20.996,30.273,33.203,6.836,4.395
1586550597.273,62.5,31.738,32.715,38.086,30.273
1586550597.277,101.074,30.273,33.203,61.035,13.184
1586550597.281,7.324,29.297,34.668,20.508,-7.812
1586550597.285,-30.762,31.25,33.691,-8.301,-20.508
1586550597.289,43.945,32.715,32.227,16.113,-40.527
1586550597.293,108.398,33.203,29.297,55.176,-4.883
1586550597.297,28.809,33.203,29.297,37.109,25.879
1586550597.301,-49.805,30.762,29.297,-5.859,42.969
1586550597.304,6.836,31.25,28.809,5.859,81.055
1586550597.308,87.891,33.203,30.762,45.898,8.789
1586550597.312,60.547,30.273,31.738,41.992,37.109
1586550597.316,-26.367,29.785,30.273,-2.93,79.59
1586550597.32,-8.301,31.25,30.273,-1.465,6.836
1586550597.324,68.359,32.227,30.273,38.574,0
1586550597.328,83.496,31.738,28.809,54.688,0.977
1586550597.332,-10.254,32.227,28.32,11.23,-18.555
1586550597.336,-18.066,32.227,28.809,-11.23,-41.016
1586550597.34,53.711,32.227,25.391,21.973,-26.367
1586550597.344,96.68,33.203,24.414,52.246,-30.762
1586550597.347,14.648,32.227,29.297,19.531,5.371
1586550597.351,-30.762,34.18,29.785,-7.324,25.391
1586550597.355,30.762,35.156,29.785,23.438,39.551
1586550597.359,101.074,30.273,32.227,63.965,-4.883
1586550597.363,45.898,33.203,35.156,41.992,-0.488
1586550597.367,-31.25,35.156,32.227,3.418,50.293
1586550597.371,12.695,31.25,30.273,10.742,64.453
1586550597.375,91.309,32.227,31.738,49.805,90.82
1586550597.379,68.848,35.156,33.203,52.246,28.32
1586550597.383,-22.461,35.645,34.18,4.395,18.555
1586550597.387,-2.441,34.668,31.738,-8.301,72.754
1586550597.39,79.102,34.18,30.273,23.438,22.461
1586550597.394,98.633,35.156,30.762,50.293,5.859
1586550597.398,-6.348,33.691,33.203,15.137,46.875
1586550597.402,-33.691,32.715,35.156,1.465,-1.465
1586550597.406,43.945,35.156,34.668,31.25,-60.547
1586550597.41,100.098,36.621,33.203,59.082,-45.898
1586550597.414,16.113,34.668,33.691,27.832,23.926
1586550597.418,-41.504,31.738,34.18,-4.395,36.621
1586550597.422,18.066,30.762,32.715,17.09,8.789
1586550597.426,93.75,30.762,31.738,47.852,0.488
1586550597.429,53.711,32.227,29.785,35.645,23.926
1586550597.433,-33.203,31.25,25.879,1.465,42.48
1586550597.437,-2.441,32.715,25.391,5.859,42.48
1586550597.441,87.891,33.203,27.344,44.922,34.18
1586550597.445,76.172,30.762,28.809,51.758,33.203
1586550597.449,-26.855,33.203,28.809,9.766,57.617
1586550597.453,-17.09,32.715,27.344,4.395,27.344
1586550597.457,68.848,31.25,26.855,35.156,-1.953
1586550597.461,101.562,34.668,26.855,55.664,24.414
1586550597.465,2.93,32.715,27.832,20.02,41.504
1586550597.469,-25.879,30.762,28.32,-3.418,83.008
1586550597.472,44.922,32.227,27.344,29.297,74.219
1586550597.476,103.516,30.273,27.832,59.57,41.992
1586550597.48,29.297,30.273,28.809,28.809,55.176
1586550597.484,-32.715,32.715,25.391,-3.906,7.324
1586550597.488,21.973,32.227,27.344,12.207,12.695
1586550597.492,106.445,32.227,27.344,56.152,47.363
1586550597.496,68.359,32.227,28.32,45.898,27.344
1586550597.5,-29.785,32.715,30.762,6.836,57.129
1586550597.504,0,36.133,30.273,10.254,81.543
1586550597.508,83.496,31.738,30.273,42.48,83.008
1586550597.512,84.473,30.273,29.297,52.734,108.887
1586550597.515,-15.625,33.691,31.738,13.672,69.336
1586550597.519,-21.484,32.715,31.25,4.395,36.621
1586550597.523,62.988,32.227,30.273,37.109,87.891
1586550597.527,108.398,31.738,30.762,65.918,55.176
1586550597.531,9.766,31.25,34.668,28.809,17.578
1586550597.535,-24.902,31.25,36.621,-1.465,-10.742
1586550597.539,51.758,32.715,32.715,25.391,-34.668
1586550597.543,103.027,32.715,32.227,62.5,42.969
1586550597.547,41.504,32.715,31.738,47.852,57.129
1586550597.551,-13.672,36.133,28.32,18.555,18.555
1586550597.554,19.531,31.25,31.738,18.555,-5.859
1586550597.558,84.961,27.344,37.109,48.34,4.883
1586550597.562,53.711,31.25,36.621,55.664,19.531
1586550597.566,-47.363,32.715,40.039,16.602,11.719
1586550597.57,-31.738,30.762,41.504,5.371,31.738
1586550597.574,57.129,28.32,37.109,41.016,0
1586550597.578,81.543,27.832,34.668,57.617,-11.719
1586550597.582,-10.254,26.855,33.203,9.766,36.621
1586550597.586,-21.973,29.785,32.227,-6.348,11.719
1586550597.59,52.246,32.715,29.785,31.25,-16.602
1586550597.594,99.121,32.227,28.809,57.129,52.734
1586550597.597,9.277,30.762,31.25,20.02,71.289
1586550597.601,-41.504,30.762,30.762,-6.836,72.754
1586550597.605,24.414,28.809,31.738,15.625,39.062
1586550597.609,100.098,27.344,33.203,51.758,34.668
1586550597.613,45.898,28.32,34.18,41.992,40.527
1586550597.617,-30.762,29.785,36.133,5.859,10.254
1586550597.621,8.301,29.297,33.691,16.602,5.859
1586550597.625,85.449,27.832,29.785,55.664,34.668
1586550597.629,71.777,25.879,28.32,56.641,30.762
1586550597.633,-29.297,24.414,31.25,16.113,8.789
1586550597.637,-17.09,30.273,31.738,7.812,10.254
1586550597.64,70.801,30.273,29.297,40.039,11.23
1586550597.644,94.238,29.785,30.273,60.547,34.18
1586550597.648,1.465,35.156,30.273,20.996,30.273
1586550597.652,-14.648,35.156,32.227,2.441,-1.953
1586550597.656,52.246,33.691,32.227,34.18,-48.34
1586550597.66,105.957,31.738,31.738,69.336,35.645
1586550597.664,36.621,29.297,33.691,43.945,59.57
1586550597.668,-19.043,31.738,35.645,6.836,21.973
1586550597.672,33.691,33.691,36.133,25.879,29.297
1586550597.676,107.422,32.227,35.645,69.336,11.719
1586550597.679,72.266,32.715,35.645,54.199,-30.273
1586550597.683,-14.16,30.273,34.18,4.883,-25.391
1586550597.687,11.23,32.227,33.203,5.859,-9.766
1586550597.691,81.543,31.25,32.227,41.016,15.137
1586550597.695,67.871,27.832,32.227,53.223,49.805
1586550597.699,-25.879,30.762,31.25,14.16,57.129
1586550597.703,-22.949,31.738,30.762,-6.836,50.293
1586550597.707,56.152,33.691,29.297,25.879,-10.254
1586550597.711,91.797,34.668,27.344,51.758,-20.02
1586550597.715,5.859,30.762,29.785,15.137,8.301
1586550597.719,-21.484,32.227,30.273,-7.812,-8.789
1586550597.722,48.828,36.621,29.785,19.043,-8.789
1586550597.726,102.539,35.156,30.762,57.129,14.648
1586550597.73,29.785,34.668,35.645,36.621,0.977
1586550597.734,-28.809,35.156,33.691,0.977,-3.418
1586550597.738,15.137,34.668,33.203,10.742,-28.32
1586550597.742,85.449,35.645,34.668,44.922,8.789
1586550597.746,55.664,34.18,34.18,46.875,83.008
1586550597.75,-35.156,28.32,35.645,9.277,34.18
1586550597.754,-5.371,27.832,35.156,6.348,43.945
1586550597.758,82.031,28.809,33.691,43.457,34.668
1586550597.762,90.82,30.273,32.715,55.176,1.953
1586550597.765,-3.906,33.203,36.133,13.672,75.195
1586550597.769,-15.137,32.715,36.621,0,52.246
1586550597.773,60.059,31.738,34.668,35.645,-24.414
1586550597.777,101.562,30.762,35.645,62.988,46.387
1586550597.781,9.277,30.762,34.668,30.762,83.984
1586550597.785,-33.203,28.32,34.668,10.254,20.508
1586550597.789,33.203,28.32,34.18,32.227,4.883
1586550597.793,100.098,29.297,34.668,61.523,8.301
1586550597.797,44.434,32.227,36.621,38.086,-24.902
1586550597.801,-30.273,35.156,35.645,-2.441,4.883
1586550597.804,16.602,34.18,32.715,3.418,43.945
1586550597.808,102.051,33.691,32.227,49.316,27.832
1586550597.812,78.125,35.156,37.109,51.758,30.273
1586550597.816,-15.137,36.621,38.574,6.836,18.555
1586550597.82,-6.348,36.133,37.109,8.789,-10.742
1586550597.824,68.848,34.668,35.645,42.48,-17.578
1586550597.828,87.402,35.645,32.715,54.199,-6.836
1586550597.832,-12.695,33.691,32.715,12.207,49.805
1586550597.836,-30.762,32.227,31.738,-6.348,12.695
1586550597.84,43.457,31.25,30.762,28.809,1.953
1586550597.844,99.121,31.25,31.25,62.988,48.828
1586550597.847,15.625,34.668,32.227,33.691,37.598
1586550597.851,-36.621,35.645,33.203,-1.465,21.973
1586550597.855,34.18,35.645,31.738,14.648,31.738
1586550597.859,110.84,35.645,32.227,55.176,26.855
1586550597.863,49.316,35.645,33.203,45.898,60.059
1586550597.867,-42.48,34.668,33.203,6.836,43.457
1586550597.871,-5.371,31.738,33.203,16.602,7.812
1586550597.875,86.914,33.203,34.18,56.641,58.105
1586550597.879,81.543,32.715,34.668,59.082,78.125
1586550597.883,-15.137,31.738,35.156,16.602,-2.441
1586550597.887,-4.395,31.738,35.156,8.301,-4.883
1586550597.89,72.266,27.832,32.715,40.527,41.016
1586550597.894,99.121,27.344,32.227,61.523,6.836
1586550597.898,-2.441,31.738,32.715,21.484,20.508
1586550597.902,-30.762,31.738,31.25,-1.465,51.27
1586550597.906,43.945,32.715,32.715,27.344,80.566
1586550597.91,95.703,32.715,31.738,62.012,112.305
1586550597.914,16.602,32.227,33.203,34.668,80.078
1586550597.918,-36.621,32.715,35.645,0.977,36.133
1586550597.922,27.344,31.738,34.18,24.414,4.883
1586550597.926,107.422,32.227,35.645,62.012,-3.906
1586550597.929,71.289,31.738,36.133,42.969,-1.465
1586550597.933,-27.832,29.297,36.133,-1.953,-3.418
1586550597.937,-12.207,30.762,33.691,5.859,25.391
1586550597.941,71.289,32.715,30.762,45.898,18.555
1586550597.945,75.195,31.738,33.203,49.316,67.383
1586550597.949,-22.949,30.273,33.203,7.812,101.562
1586550597.953,-30.273,30.762,30.762,-0.488,57.129
1586550597.957,57.617,32.227,28.809,30.273,56.152
1586550597.961,104.98,32.715,29.785,54.688,24.414
1586550597.965,6.348,32.227,31.25,18.555,15.137
1586550597.969,-32.227,33.203,30.273,-2.441,5.859
1586550597.972,31.738,34.18,31.738,22.461,19.531
1586550597.976,99.609,37.109,32.227,54.199,19.531
1586550597.98,37.598,37.598,30.762,32.715,-4.883
1586550597.984,-42.969,33.691,31.25,-8.789,33.203
1586550597.988,7.812,36.133,29.785,13.184,27.344
1586550597.992,99.121,37.598,29.297,53.711,23.438
1586550597.996,68.359,34.668,28.809,44.922,71.289
1586550598,-30.762,33.203,31.738,3.418,51.27
1586550598.004,-6.836,33.203,32.715,4.883,29.297
1586550598.008,84.473,34.18,31.738,45.898,63.477
1586550598.012,100.586,33.691,34.668,62.5,57.129
1586550598.015,-2.93,33.691,34.668,22.461,-15.625
1586550598.019,-22.461,35.156,34.668,6.836,-47.852
1586550598.023,55.176,33.691,35.156,35.645,-2.441
1586550598.027,111.328,31.25,32.715,65.918,15.625
1586550598.031,26.367,30.273,33.203,37.598,-19.531
1586550598.035,-37.109,29.785,36.621,0.488,38.086
1586550598.039,15.137,29.297,38.086,14.16,92.773
1586550598.043,95.215,28.809,35.645,54.199,33.691
1586550598.047,35.156,30.273,33.691,34.18,-19.531
1586550598.051,-47.363,30.273,34.18,-4.883,1.953
1586550598.054,8.789,31.25,32.227,8.301,3.906
1586550598.058,94.238,31.738,30.762,48.34,45.41
1586550598.062,70.801,28.809,31.738,50.781,75.195
1586550598.066,-25.391,30.273,32.715,7.324,-11.23
1586550598.07,-17.578,31.25,30.762,-4.883,19.043
1586550598.074,64.453,29.785,30.273,34.18,87.891
1586550598.078,97.656,32.715,31.738,54.199,79.102
1586550598.082,8.301,36.133,31.738,11.719,24.902
1586550598.086,-14.648,35.156,27.832,-4.395,-16.602
1586550598.09,58.594,33.691,27.344,24.902,33.203
1586550598.094,106.445,32.227,31.738,59.082,65.918
1586550598.097,6.836,32.227,32.715,28.32,22.461
1586550598.101,-48.34,30.762,32.715,-4.883,2.441
1586550598.105,16.602,32.227,30.273,18.555,-24.414
1586550598.109,98.145,33.203,28.809,60.059,-41.992
1586550598.113,58.105,35.645,31.738,46.387,5.859
1586550598.117,-38.086,37.109,34.668,-0.977,-4.395
1586550598.121,-8.789,32.227,35.645,9.766,11.23
1586550598.125,67.871,32.715,35.156,54.688,27.832
1586550598.129,66.895,35.156,32.715,56.152,37.598
1586550598.133,-15.137,32.715,31.25,6.836,30.762
1586550598.137,-4.395,34.18,28.809,1.465,30.762
1586550598.14,75.684,34.668,27.344,43.457,6.348
1586550598.144,111.816,33.203,29.785,62.988,12.695
1586550598.148,13.672,34.18,32.715,19.043,49.316
1586550598.152,-28.32,33.691,31.738,0,1.953
1586550598.156,46.387,35.156,30.273,30.762,28.809
1586550598.16,115.234,40.039,30.762,67.383,82.031
1586550598.164,44.434,40.039,31.25,41.504,16.113
1586550598.168,-19.531,33.691,31.25,-0.488,0.977
1586550598.172,36.621,30.762,29.297,13.184,38.086
1586550598.176,105.957,28.809,26.367,56.641,59.57
1586550598.179,64.453,27.344,29.785,53.711,60.547
1586550598.183,-27.832,27.832,31.738,9.766,9.277
1586550598.187,-4.883,31.25,31.738,11.23,-25.391
1586550598.191,73.242,31.738,31.25,49.316,2.93
1586550598.195,82.031,30.762,32.227,59.082,82.031
1586550598.199,-19.531,31.738,31.25,12.207,84.473
1586550598.203,-27.344,29.785,30.762,-2.441,54.199
1586550598.207,57.617,29.785,32.227,29.297,43.945
1586550598.211,96.68,31.25,31.738,55.176,29.785
1586550598.215,1.465,28.809,33.691,25.391,30.762
1586550598.219,-33.203,27.344,32.227,-1.953,54.688
1586550598.222,37.598,26.367,30.273,21.484,23.926
1586550598.226,103.516,25.879,29.785,54.199,47.852
1586550598.23,34.668,30.762,32.227,29.785,43.457
1586550598.234,-37.598,29.785,32.227,-4.883,14.648
1586550598.238,6.836,26.855,31.738,12.207,85.449
1586550598.242,83.496,26.367,32.227,54.688,62.5
1586550598.246,64.941,27.832,32.227,49.805,25.879
1586550598.25,-36.133,26.855,32.227,-0.977,13.672
1586550598.254,-19.531,26.855,31.25,-6.348,17.09
1586550598.258,71.289,27.344,30.273,39.551,47.363
1586550598.262,84.473,25.879,28.809,58.105,23.438
1586550598.265,-14.648,29.297,30.273,20.02,1.953
1586550598.269,-24.902,30.273,30.762,5.371,-23.438
1586550598.273,50.781,30.273,31.25,33.203,-49.805
1586550598.277,104.98,29.785,32.715,61.035,25.879
1586550598.281,23.926,30.762,32.715,28.32,78.613
1586550598.285,-31.738,31.738,33.203,2.93,3.906
1586550598.289,33.691,32.715,33.203,28.32,22.461
1586550598.293,115.723,35.645,33.691,62.5,62.012
1586550598.297,57.617,35.156,34.18,37.109,21.973
1586550598.301,-31.738,34.18,33.203,-7.812,-28.32
1586550598.304,12.207,33.203,32.715,1.953,-70.801
1586550598.308,95.215,33.203,34.668,44.922,25.391
1586550598.312,77.148,33.203,35.156,43.457,26.855
1586550598.316,-27.344,33.203,33.691,-3.906,37.109
1586550598.32,-18.066,32.227,32.227,-5.371,62.012
1586550598.324,73.73,32.227,32.715,37.109,41.992
1586550598.328,100.586,36.133,34.668,59.082,114.746
1586550598.332,1.465,33.691,33.691,19.531,101.074
1586550598.336,-28.809,28.809,32.227,-5.371,67.871
1586550598.34,38.574,28.32,32.227,17.09,98.145
1586550598.344,96.68,29.297,34.668,53.711,81.543
1586550598.347,15.137,31.738,35.645,32.715,34.668
1586550598.351,-42.969,32.227,34.18,-2.93,15.137
1586550598.355,22.461,31.738,33.203,15.625,20.02
1586550598.359,104.492,29.785,35.156,58.105,60.547
1586550598.363,57.617,28.32,35.645,46.875,83.008
1586550598.367,-39.062,28.32,32.715,8.301,-11.23
1586550598.371,-3.906,26.855,34.18,16.602,-12.695
1586550598.375,87.402,30.762,34.668,48.828,63.477
1586550598.379,74.219,30.762,33.691,50.293,72.266
1586550598.383,-35.645,27.832,35.156,7.812,68.848
1586550598.387,-26.855,30.762,33.203,-2.441,16.113
1586550598.39,60.547,32.715,36.133,30.762,-19.531
1586550598.394,94.727,30.762,37.109,55.664,35.645
1586550598.398,3.418,31.738,33.691,16.113,45.41
1586550598.402,-18.555,33.691,33.203,-2.93,24.902
1586550598.406,52.734,34.668,31.25,28.809,43.945
1586550598.41,112.793,31.738,27.832,59.082,18.066
1586550598.414,35.645,28.32,30.273,34.18,-41.016
1586550598.418,-40.527,30.273,30.762,-8.789,-12.695
1586550598.422,12.695,29.785,28.809,10.254,38.086
1586550598.426,95.215,30.273,29.297,62.988,-0.488
1586550598.429,64.453,33.691,29.297,53.711,-0.977
1586550598.433,-27.344,30.762,29.785,8.301,-39.062
1586550598.437,-0.488,31.738,28.809,7.812,-1.465
1586550598.441,78.125,35.156,28.32,43.945,16.113
1586550598.445,81.055,33.203,28.32,57.617,34.18
1586550598.449,-17.578,31.738,28.809,12.207,83.496
1586550598.453,-20.02,33.203,32.227,0,28.809
1586550598.457,60.059,32.227,32.715,26.855,41.504
1586550598.461,106.934,30.273,32.227,53.711,20.508
1586550598.465,13.672,30.273,33.691,24.902,-48.828
1586550598.469,-44.434,30.273,37.598,-0.488,-21.973
1586550598.472,21.484,31.738,35.645,24.902,27.832
1586550598.476,94.727,31.738,31.738,58.105,45.898
1586550598.48,37.598,31.25,33.203,38.086,-28.32
1586550598.484,-36.133,30.762,33.203,-0.977,-33.203
1586550598.488,11.719,30.273,32.227,2.93,1.465
1586550598.492,90.82,30.762,32.715,45.41,20.996
1586550598.496,71.777,29.785,31.25,47.363,21.973
1586550598.5,-21.973,31.25,33.203,3.418,-6.348
1586550598.504,-15.137,32.227,34.668,0.977,-2.93
1586550598.508,64.941,31.25,28.32,35.156,39.062
1586550598.512,94.238,31.738,30.762,58.594,39.551
1586550598.515,-7.324,28.809,31.738,18.066,43.457
1586550598.519,-34.18,32.227,29.297,-1.465,11.23
1586550598.523,42.48,31.25,30.273,26.367,-4.883
1586550598.527,99.121,28.32,29.785,60.059,77.637
1586550598.531,22.461,29.297,32.227,29.785,45.41
1586550598.535,-29.785,28.32,27.832,-11.23,12.207
1586550598.539,29.297,30.762,26.855,20.02,75.195
1586550598.543,93.262,30.273,31.25,60.547,81.543
1586550598.547,41.992,26.855,30.273,40.039,21.484
1586550598.551,-31.738,29.785,30.762,-0.977,8.789
1586550598.554,0.488,31.25,33.691,4.883,14.16
1586550598.558,82.52,28.809,34.668,53.223,13.184
1586550598.562,79.59,29.297,35.156,64.941,12.695
1586550598.566,-13.672,32.227,35.156,17.09,5.859
1586550598.57,-2.93,33.691,33.203,4.395,-12.695
1586550598.574,72.266,30.273,33.203,40.527,-31.25
1586550598.578,94.727,30.273,36.133,62.012,0.977
1586550598.582,0,32.227,35.156,23.438,25.879
1586550598.586,-23.926,32.715,34.18,4.883,23.926
1586550598.59,55.664,35.645,32.715,28.32,29.785
1586550598.594,123.535,35.645,32.227,63.965,25.391
1586550598.597,38.086,34.668,35.156,43.945,70.312
1586550598.601,-37.598,36.621,32.715,6.348,66.406
1586550598.605,25.879,39.062,28.809,16.602,9.277
1586550598.609,106.934,38.086,27.832,61.523,9.277
1586550598.613,59.082,36.621,30.273,55.664,15.137
1586550598.617,-43.945,35.156,31.738,7.812,40.527
1586550598.621,-18.555,31.25,28.809,6.348,66.895
1586550598.625,72.754,30.762,29.785,44.434,65.918
1586550598.629,69.824,31.738,33.203,53.711,38.086
1586550598.633,-33.203,33.203,33.691,5.859,21.973
1586550598.637,-31.25,32.715,29.785,-2.93,16.602
1586550598.64,56.152,31.738,27.344,32.715,10.742
1586550598.644,95.703,33.203,29.785,52.734,11.719
1586550598.648,4.395,32.715,35.156,17.09,32.715
1586550598.652,-33.691,30.762,34.668,-8.301,6.836
1586550598.656,31.25,29.297,33.203,13.184,19.043
1586550598.66,100.586,31.25,32.715,51.27,94.238
1586550598.664,36.133,31.738,35.156,30.273,35.645
1586550598.668,-34.18,31.738,34.668,-6.348,-42.48
1586550598.672,17.09,32.715,29.785,11.23,-17.578
1586550598.676,93.262,31.25,29.297,46.875,37.109
1586550598.679,62.5,33.203,30.762,40.039,11.23
1586550598.683,-20.508,33.691,31.25,9.766,-9.766
1586550598.687,-7.812,31.25,34.18,10.742,39.551
1586550598.691,67.383,32.227,36.133,41.016,26.367
1586550598.695,96.191,32.715,37.598,57.129,10.742
1586550598.699,-2.93,33.203,39.062,14.16,38.086
1586550598.703,-35.645,32.227,36.133,-4.883,21.484
1586550598.707,40.527,30.273,35.156,35.156,21.484
1586550598.711,102.539,32.715,35.645,68.848,47.852
1586550598.715,28.809,37.109,36.621,31.738,45.41
1586550598.719,-23.926,32.715,34.18,-3.418,26.367
1586550598.722,27.832,31.738,30.762,17.578,17.578
1586550598.726,97.656,32.715,33.203,57.129,57.617
1586550598.73,49.805,33.203,34.18,44.434,65.918
1586550598.734,-21.484,34.668,32.227,8.301,31.25
1586550598.738,16.113,33.691,32.715,13.672,0.977
1586550598.742,100.098,34.668,33.203,58.105,57.617
1586550598.746,78.125,33.691,33.691,60.059,64.453
1586550598.75,-18.555,31.738,35.156,9.766,24.414
1586550598.754,-4.395,32.227,31.738,13.672,26.367
1586550598.758,70.312,31.25,27.832,47.852,23.926
1586550598.762,94.727,30.273,29.297,59.082,-6.836
1586550598.765,-6.348,29.785,27.832,18.066,31.25
1586550598.769,-26.855,32.715,27.344,-1.465,38.086
1586550598.773,62.5,31.25,27.832,27.832,30.762
1586550598.777,125.488,32.227,25.879,57.129,12.207
1586550598.781,37.109,32.715,28.32,24.902,26.855
1586550598.785,-27.832,29.785,26.855,-9.766,60.059
1586550598.789,30.762,31.738,25.879,12.207,59.57
1586550598.793,102.539,28.809,27.344,50.293,39.062
1586550598.797,58.105,31.25,31.25,46.875,-27.344
1586550598.801,-23.926,32.715,32.227,9.766,-1.953
1586550598.804,8.301,28.809,31.25,15.137,32.227
1586550598.808,90.82,32.227,29.785,54.199,53.223
1586550598.812,82.52,35.156,28.809,58.105,54.688
1586550598.816,-30.762,32.227,30.273,17.09,43.457
1586550598.82,-21.484,29.297,30.273,6.348,51.27
1586550598.824,69.336,30.762,31.25,43.945,22.461
1586550598.828,102.539,31.738,34.18,72.266,9.766
1586550598.832,2.93,31.738,33.203,23.438,18.066
1586550598.836,-31.738,32.227,31.25,0.488,5.859
1586550598.84,36.621,30.762,34.18,39.062,13.672
1586550598.844,94.238,28.809,33.691,66.895,-9.766
1586550598.847,28.32,29.785,33.203,38.574,19.043
1586550598.851,-41.504,30.273,32.227,2.441,53.223
1586550598.855,5.371,31.738,32.715,11.719,11.719
1586550598.859,94.238,33.203,33.691,48.34,25.879
1586550598.863,58.594,31.738,33.691,39.551,0.488
1586550598.867,-36.621,29.297,33.691,-2.441,16.602
1586550598.871,-2.93,27.344,30.762,1.953,35.645
1586550598.875,82.031,30.273,28.809,42.48,20.508
1586550598.879,85.449,32.715,35.156,57.129,67.871
1586550598.883,-20.02,30.762,38.574,17.578,83.984
1586550598.887,-23.438,31.25,36.133,6.836,47.852
1586550598.89,65.43,33.691,35.156,35.156,67.871
1586550598.894,107.422,34.18,35.645,57.617,87.891
1586550598.898,11.719,38.086,34.668,25.879,37.598
1586550598.902,-31.25,36.621,31.738,4.395,27.832
1586550598.906,34.668,32.227,34.668,33.691,23.438
1586550598.91,104.004,30.762,34.18,70.312,43.457
1586550598.914,48.828,31.738,31.25,44.434,48.34
1586550598.918,-22.949,29.785,32.715,4.883,15.137
1586550598.922,16.602,27.832,32.715,19.043,2.93
1586550598.926,88.379,29.785,30.273,57.129,14.16
1586550598.929,57.617,31.25,30.273,55.664,35.645
1586550598.933,-28.32,29.785,32.227,12.695,10.742
1586550598.937,-6.348,29.785,30.762,11.23,-28.32
1586550598.941,79.102,31.738,29.297,47.363,4.395
1586550598.945,90.82,32.227,32.227,57.129,49.316
1586550598.949,-18.066,30.762,33.203,10.254,12.695
1586550598.953,-34.18,30.273,31.738,-3.906,8.789
1586550598.957,41.992,31.25,30.762,29.297,71.289
1586550598.961,100.586,33.691,30.273,60.059,94.727
1586550598.965,19.531,33.691,32.227,30.273,49.316
1586550598.969,-31.25,30.762,34.668,1.465,43.457
1586550598.972,35.645,29.785,33.691,24.414,53.711
1586550598.976,106.445,30.273,32.227,63.965,46.387
1586550598.98,53.711,31.738,31.25,52.246,56.641
1586550598.984,-27.832,31.738,32.715,6.348,80.078
1586550598.988,11.23,31.738,31.25,9.766,42.48
1586550598.992,95.703,32.715,27.344,44.434,-13.184
1586550598.996,81.543,34.668,29.297,39.551,2.441
1586550599,-24.414,32.227,31.738,-3.906,10.254
1586550599.004,-19.043,29.785,28.809,-2.93,9.766
1586550599.008,62.012,31.25,28.32,35.645,8.301
1586550599.012,85.938,30.273,32.227,55.176,-1.465
1586550599.015,-6.348,32.715,33.203,14.16,47.852
1586550599.019,-27.832,34.18,33.203,-6.348,47.363
1586550599.023,52.246,34.18,34.668,24.902,-24.902
1586550599.027,105.469,33.691,34.18,61.035,-7.324
1586550599.031,19.043,31.738,34.18,36.621,-5.859
1586550599.035,-31.738,29.785,33.691,4.883,-20.996
1586550599.039,35.156,32.227,30.273,21.484,35.645
1586550599.043,107.422,33.691,27.832,59.57,56.641
1586550599.047,55.664,30.762,31.25,45.898,51.27
1586550599.051,-29.785,31.25,32.227,4.395,4.395
1586550599.054,0,31.738,30.273,10.742,21.973
1586550599.058,79.102,30.273,29.297,51.27,39.062
1586550599.062,75.684,29.297,30.273,56.152,14.16
1586550599.066,-26.367,30.762,31.25,6.836,26.367
1586550599.07,-22.461,33.203,30.273,-0.977,2.93
1586550599.074,60.059,32.227,30.762,36.133,-14.648
1586550599.078,98.145,33.203,27.832,58.105,15.625
1586550599.082,5.859,32.715,26.855,18.066,-4.883
1586550599.086,-34.668,29.785,28.32,-6.836,14.16
1586550599.09,30.273,29.297,32.715,24.414,39.551
1586550599.094,96.68,27.832,34.18,57.129,-6.836
1586550599.097,30.762,28.32,34.18,31.738,14.648
1586550599.101,-33.203,27.832,33.203,3.906,34.18
1586550599.105,8.789,25.391,33.691,24.414,35.645
1586550599.109,79.59,25.879,33.691,59.082,32.227
1586550599.113,59.082,27.832,31.25,40.039,35.645
1586550599.117,-26.855,28.32,30.762,-12.695,56.641
1586550599.121,-9.277,28.32,31.25,-9.277,46.875
1586550599.125,73.242,28.809,30.273,28.32,25.391
1586550599.129,73.73,28.809,29.785,43.457,64.941
1586550599.133,-20.02,29.297,27.832,19.043,97.168
1586550599.137,-5.371,34.18,27.832,18.555,12.695
1586550599.14,75.195,31.738,35.645,40.527,10.742
1586550599.144,110.84,26.855,40.527,48.828,86.426
1586550599.148,7.324,24.902,40.527,23.926,45.898
1586550599.152,-52.246,23.926,39.551,0,-19.531
1586550599.156,17.578,27.344,38.574,13.184,-12.207
1586550599.16,93.75,29.785,39.062,60.059,11.719
1586550599.164,41.504,30.273,41.504,47.852,-14.648
1586550599.168,-28.32,31.25,38.086,3.418,-37.598
1586550599.172,16.113,28.32,35.156,13.184,21.484
1586550599.176,94.238,29.297,34.668,56.641,33.691
1586550599.179,73.242,30.762,36.133,55.176,70.801
1586550599.183,-25.879,31.25,40.527,5.371,17.578
1586550599.187,-15.137,31.25,38.574,6.348,-24.902
1586550599.191,69.824,29.297,37.598,45.898,41.016
1586550599.195,101.562,31.25,37.598,61.523,31.25
1586550599.199,7.812,33.203,36.133,21.973,1.465
1586550599.203,-24.414,33.203,36.133,0,0.977
1586550599.207,41.016,29.785,35.645,27.344,2.441
1586550599.211,87.402,29.297,32.715,50.293,53.223
1586550599.215,5.859,31.25,33.203,18.066,54.688
1586550599.219,-42.969,29.785,33.691,-10.254,85.938
1586550599.222,22.461,31.25,31.25,13.672,46.387
1586550599.226,101.562,31.738,36.621,53.711,-9.277
1586550599.23,53.711,29.297,37.598,37.598,60.547
1586550599.234,-34.668,30.762,36.133,4.395,25.391
1586550599.238,9.766,33.691,36.133,13.184,12.695
1586550599.242,101.074,31.25,33.203,50.781,-2.441
1586550599.246,89.844,32.715,32.227,61.523,62.5
1586550599.25,-15.137,36.133,33.691,13.184,86.914
1586550599.254,-11.23,32.227,34.18,1.465,39.062
1586550599.258,60.547,29.785,32.227,32.715,60.547
1586550599.262,93.75,33.203,29.785,52.734,38.086
1586550599.265,13.184,32.227,31.25,23.438,28.32
1586550599.269,-13.672,28.809,34.18,3.418,36.621
1586550599.273,57.129,30.273,32.715,24.414,28.32
1586550599.277,110.84,31.738,32.227,59.082,23.926
1586550599.281,34.668,32.227,32.715,32.227,12.207
1586550599.285,-29.297,33.691,33.203,-0.977,-13.672
1586550599.289,24.414,32.715,33.691,20.996,-17.09
1586550599.293,101.074,27.832,34.668,63.965,55.176
1586550599.297,62.5,25.391,34.18,49.316,37.109
1586550599.301,-21.973,29.297,33.203,1.465,5.371
1586550599.304,-1.953,27.832,32.715,4.395,30.762
1586550599.308,71.777,25.879,32.715,45.898,38.086
1586550599.312,75.195,29.785,33.691,59.57,35.645
1586550599.316,-20.02,29.785,35.645,8.789,0
1586550599.32,-12.695,27.344,36.621,-2.93,16.113
1586550599.324,64.453,26.367,35.645,38.086,68.359
1586550599.328,95.215,26.855,35.645,61.035,57.129
1586550599.332,6.836,26.367,35.156,23.926,57.129
1586550599.336,-24.902,31.738,32.227,-2.93,69.824
1586550599.34,49.316,32.715,31.25,24.414,54.688
1586550599.344,119.141,33.203,32.227,58.594,54.688
1586550599.347,41.504,33.691,32.715,23.926,33.691
1586550599.351,-41.504,30.762,32.227,-7.812,11.23
1586550599.355,8.301,32.227,31.25,9.766,30.762
1586550599.359,90.82,31.738,28.32,42.48,86.426
1586550599.363,48.34,31.738,28.32,45.898,83.984
1586550599.367,-58.594,33.203,30.762,0.977,61.035
1586550599.371,-28.32,29.297,33.203,-5.859,20.02
1586550599.375,65.918,29.785,30.762,34.668,5.859
1586550599.379,77.148,31.738,30.762,49.316,45.41
1586550599.383,-19.531,25.391,36.133,11.719,43.457
1586550599.387,-26.855,26.367,34.18,-3.906,8.301
1586550599.39,53.711,23.438,33.203,32.715,20.996
1586550599.394,100.098,26.367,32.227,61.035,53.223
1586550599.398,6.836,33.203,29.785,20.508,49.805
1586550599.402,-40.527,31.738,31.25,-4.395,-4.395
1586550599.406,25.391,31.25,30.273,16.113,44.922
1586550599.41,106.445,31.25,29.785,46.387,59.082
1586550599.414,50.293,34.18,32.715,33.691,3.418
1586550599.418,-33.203,31.738,33.203,-1.465,18.066
1586550599.422,7.812,32.227,31.738,11.719,26.367
1586550599.426,83.008,33.691,29.785,52.246,58.594
1586550599.429,66.406,33.691,30.762,52.246,45.41
1586550599.433,-18.066,38.086,29.785,8.301,-13.184
1586550599.437,9.766,38.086,29.297,8.789,-20.996
1586550599.441,87.891,37.598,29.297,43.457,0.488
1586550599.445,93.75,36.133,28.809,52.246,-5.859
1586550599.449,-16.113,33.203,31.25,9.277,-31.738
1586550599.453,-38.086,33.203,31.25,-7.812,-2.441
1586550599.457,41.504,35.645,32.227,21.484,-32.227
1586550599.461,101.562,37.598,33.691,59.57,0.488
1586550599.465,22.949,32.227,33.691,28.32,104.492
1586550599.469,-43.945,28.809,34.668,-12.207,81.543
1586550599.472,15.625,29.785,33.203,13.184,52.246
1586550599.476,98.633,31.738,33.203,56.641,3.906
1586550599.48,52.734,35.156,35.156,45.898,25.879
1586550599.484,-30.273,33.691,34.668,8.301,41.992
1586550599.488,3.906,33.691,33.691,15.137,14.16
1586550599.492,88.867,35.645,33.691,52.734,40.039
1586550599.496,80.078,36.133,35.645,52.734,20.02
1586550599.5,-21.484,33.691,39.551,12.695,21.973
1586550599.504,-10.254,35.645,36.621,3.418,-5.371
1586550599.508,74.219,37.598,33.691,26.367,19.043
1586550599.512,98.633,35.645,33.203,50.781,74.707
1586550599.515,-8.789,33.691,35.156,20.508,37.109
1586550599.519,-41.992,32.227,35.156,-0.977,-14.648
1586550599.523,39.551,34.18,31.738,26.367,12.695
1586550599.527,99.121,33.691,33.203,59.082,14.648
1586550599.531,24.414,33.203,34.668,34.668,30.762
1586550599.535,-37.109,31.738,32.715,0,42.48
1586550599.539,20.996,31.738,32.227,10.742,-29.785
1586550599.543,106.934,34.18,31.25,51.27,-19.531
1586550599.547,71.777,34.668,32.227,48.34,-14.16
1586550599.551,-30.273,31.738,35.156,9.766,-32.227
1586550599.554,-12.695,29.297,36.133,18.066,-10.742
1586550599.558,78.125,28.809,35.645,56.641,30.273
1586550599.562,89.844,31.25,34.18,61.523,77.637
1586550599.566,-16.113,32.227,34.18,9.766,43.945
1586550599.57,-23.926,31.25,34.668,-1.465,13.672
1586550599.574,55.176,30.273,34.668,38.086,57.617
1586550599.578,101.562,30.273,34.668,59.57,59.57
1586550599.582,20.02,34.18,35.156,23.438,56.641
1586550599.586,-23.438,36.133,35.156,-1.953,71.777
1586550599.59,41.504,31.25,37.598,25.879,41.016
1586550599.594,108.398,29.297,37.109,62.988,-1.953
1586550599.597,44.922,32.715,36.621,41.016,1.465
1586550599.601,-27.832,31.738,38.574,3.906,-24.414
1586550599.605,14.16,30.273,34.668,12.207,26.367
1586550599.609,95.703,32.227,30.762,52.246,53.223
1586550599.613,76.66,30.762,34.18,58.105,3.418
1586550599.617,-23.438,31.25,34.18,12.207,-15.625
1586550599.621,-7.324,34.668,33.203,10.254,65.43
1586550599.625,78.613,32.715,34.668,49.316,71.777
1586550599.629,94.727,31.738,34.668,60.059,34.18
1586550599.633,-1.953,29.297,36.133,20.996,53.711
1586550599.637,-18.066,29.785,36.621,3.906,-20.508
1586550599.64,57.617,32.227,31.25,30.762,-4.883
1586550599.644,109.375,31.738,29.297,62.988,80.566
1586550599.648,24.414,33.691,32.715,36.621,28.809
1586550599.652,-32.227,33.203,35.645,6.348,16.113
1586550599.656,33.203,32.715,35.645,22.949,24.414
1586550599.66,116.699,33.691,33.203,59.082,0
1586550599.664,59.57,32.227,33.203,41.016,8.789
1586550599.668,-26.367,30.762,33.203,-2.441,-12.695
1586550599.672,3.906,28.809,33.203,9.277,-41.992
1586550599.676,76.66,28.32,32.227,52.734,-42.969
1586550599.679,67.383,31.738,31.738,55.664,70.312
1586550599.683,-29.785,30.762,32.715,7.812,83.984
1586550599.687,-23.926,30.273,32.715,6.348,-14.648
1586550599.691,69.336,36.133,35.645,41.504,2.441
1586550599.695,100.586,36.621,37.109,60.059,47.852
1586550599.699,1.465,33.203,36.621,24.414,7.324
1586550599.703,-24.902,34.668,35.645,-1.465,27.344
1586550599.707,46.875,35.156,35.156,24.902,12.695
1586550599.711,105.957,35.156,35.156,64.453,-22.949
1586550599.715,23.926,36.133,35.156,37.109,-9.277
1586550599.719,-35.156,36.621,33.203,-1.465,24.414
1586550599.722,27.344,35.645,31.25,17.578,88.379
1586550599.726,107.422,35.645,32.227,54.199,77.637
1586550599.73,59.57,36.621,35.156,47.363,82.031
1586550599.734,-32.227,36.621,35.156,10.254,34.668
1586550599.738,1.465,37.109,33.691,11.23,-2.93
1586550599.742,77.637,33.203,35.645,48.828,63.477
1586550599.746,80.078,32.715,36.133,60.059,64.941
1586550599.75,-7.324,32.715,38.086,20.508,26.855
1586550599.754,-9.277,32.227,37.598,7.812,16.113
1586550599.758,69.824,35.645,34.668,39.551,11.23
1586550599.762,108.398,34.18,34.668,65.43,39.062
1586550599.765,15.137,33.203,37.109,27.832,83.008
1586550599.769,-24.414,33.691,34.668,0.977,36.621
1586550599.773,42.969,32.715,32.715,30.762,19.531
1586550599.777,109.375,30.762,35.645,71.289,52.734
1586550599.781,40.039,31.25,35.645,49.805,47.363
1586550599.785,-28.32,30.762,39.062,10.742,13.184
1586550599.789,17.578,29.297,41.016,19.531,9.277
1586550599.793,91.797,29.297,34.668,58.594,10.742
1586550599.797,59.082,30.273,37.109,57.129,26.367
1586550599.801,-26.367,31.738,39.062,16.602,34.668
1586550599.804,-6.836,30.273,34.18,11.719,17.09
1586550599.808,67.383,29.297,30.762,44.434,39.551
1586550599.812,79.59,30.762,30.762,54.199,51.27
1586550599.816,-12.207,30.273,33.691,11.719,23.438
1586550599.82,-13.184,30.762,32.227,-3.418,48.828
1586550599.824,65.918,33.691,31.25,31.25,61.523
1586550599.828,105.469,33.691,34.18,59.57,20.508
1586550599.832,20.508,32.715,35.156,24.414,-6.348
1586550599.836,-28.32,31.25,35.156,-1.465,23.926
1586550599.84,34.668,31.25,31.25,21.973,65.43
1586550599.844,105.469,33.203,30.273,54.199,43.945
1586550599.847,36.621,29.297,32.715,35.645,41.016
1586550599.851,-38.086,30.273,29.785,-2.93,35.156
1586550599.855,8.301,32.227,30.273,10.254,-38.086
1586550599.859,91.309,29.297,35.156,52.734,-16.602
1586550599.863,70.312,30.273,36.133,53.223,57.617
1586550599.867,-30.762,32.227,35.156,11.719,15.137
1586550599.871,-7.812,29.297,32.715,6.348,-12.207
1586550599.875,78.125,29.297,31.738,40.039,35.156
1586550599.879,94.727,30.273,33.691,54.199,41.016
1586550599.883,-2.93,28.32,35.156,13.184,-12.695
1586550599.887,-32.227,28.809,33.691,-1.465,-7.324
1586550599.89,40.527,30.273,34.668,32.715,8.789
1586550599.894,103.027,28.32,35.156,65.918,56.152
1586550599.898,23.438,29.297,33.203,32.715,120.605
1586550599.902,-32.715,29.297,31.738,-0.977,96.68
1586550599.906,21.973,28.809,30.762,17.09,113.281
1586550599.91,103.516,31.738,32.227,56.152,88.379
1586550599.914,53.711,32.715,33.203,39.062,1.465
1586550599.918,-33.203,31.25,30.762,-1.953,32.715
1586550599.922,0.977,29.785,28.809,9.277,69.336
1586550599.926,82.52,30.762,28.32,46.875,51.758
1586550599.929,71.289,29.297,29.297,49.805,35.645
1586550599.933,-26.367,26.367,30.273,2.441,40.527
1586550599.937,-13.672,29.785,31.738,-3.418,41.992
1586550599.941,74.707,31.25,31.738,40.039,50.781
1586550599.945,114.746,28.809,33.691,65.918,65.43
1586550599.949,6.836,29.785,37.109,24.902,12.207
1586550599.953,-34.18,33.691,38.086,2.93,-2.93
1586550599.957,43.945,31.738,37.109,42.48,11.23
1586550599.961,110.84,30.762,34.18,73.73,21.973
1586550599.965,31.25,32.715,33.203,38.574,22.461
1586550599.969,-34.668,31.25,34.668,3.418,3.418
1586550599.972,21.973,29.785,34.18,15.625,23.438
1586550599.976,101.074,30.273,30.762,63.477,82.031
1586550599.98,63.477,30.762,31.738,56.641,122.559
1586550599.984,-26.367,31.25,34.668,6.836,100.586
1586550599.988,3.906,30.762,36.621,18.555,51.758
1586550599.992,81.543,31.25,35.156,56.152,26.855
1586550599.996,81.055,30.273,36.621,60.059,5.371
1586550600,-21.973,32.227,39.062,19.531,30.762
1586550600.004,-25.391,32.227,38.086,4.883,19.531
1586550600.008,63.477,29.785,36.621,35.156,8.301
1586550600.012,105.957,30.762,35.156,61.523,19.043
1586550600.015,13.184,30.273,39.062,33.691,30.762
1586550600.019,-26.367,30.762,41.504,8.789,33.691
1586550600.023,41.504,32.227,37.109,25.391,6.348
1586550600.027,109.375,33.203,38.086,55.664,17.578
1586550600.031,39.551,34.18,41.016,35.645,1.465
1586550600.035,-39.062,34.668,38.086,-5.371,22.461
1586550600.039,8.789,33.203,38.086,4.883,88.867
1586550600.043,93.75,32.227,40.527,51.27,80.078
1586550600.047,67.383,33.203,40.039,48.34,70.312
1586550600.051,-24.902,35.156,38.086,0.977,55.664
1586550600.054,2.441,35.645,37.109,5.859,4.883
1586550600.058,84.473,32.227,35.645,42.969,-18.555
1586550600.062,91.797,30.762,35.156,53.711,41.504
1586550600.066,-2.93,32.227,37.109,18.066,40.527
1586550600.07,-17.09,31.738,37.598,3.418,-77.148
1586550600.074,53.711,29.297,35.156,35.645,-72.754
1586550600.078,101.074,27.832,34.18,64.453,28.809
1586550600.082,12.207,28.32,35.645,30.762,41.992
1586550600.086,-33.691,27.832,34.668,7.324,12.695
1586550600.09,33.691,29.785,32.715,29.785,-24.414
1586550600.094,110.84,31.25,33.203,63.477,7.324
1586550600.097,45.41,28.809,35.645,41.992,37.109
1586550600.101,-45.41,28.809,34.18,-1.953,14.648
1586550600.105,-5.859,28.809,31.738,11.719,15.625
1586550600.109,77.148,29.785,31.25,52.734,38.086
1586550600.113,61.523,29.297,30.273,54.199,38.086
1586550600.117,-26.367,29.297,31.738,11.719,68.848
1586550600.121,-9.766,30.762,30.762,1.953,53.223
1586550600.125,68.848,31.738,29.297,37.598,16.602
1586550600.129,96.191,32.227,31.738,62.012,33.691
1586550600.133,2.93,34.18,31.25,21.484,50.293
1586550600.137,-24.902,31.738,31.738,-2.93,-6.348
1586550600.14,47.363,31.738,34.18,24.902,-1.953
1586550600.144,110.84,32.227,32.227,62.5,92.285
1586550600.148,29.785,29.297,31.738,36.133,56.152
1586550600.152,-27.344,31.738,30.762,0,15.137
1586550600.156,34.18,31.25,28.809,17.09,56.641
1586550600.16,112.305,31.738,30.762,52.734,49.316
1586550600.164,59.57,31.738,33.203,38.574,28.32
1586550600.168,-29.785,30.273,33.203,-1.465,34.18
1586550600.172,9.277,31.738,31.25,7.324,25.391
1586550600.176,88.867,27.832,30.762,45.898,43.457
1586550600.179,78.125,27.832,31.738,55.176,22.461
1586550600.183,-12.695,30.762,34.18,14.648,-5.859
1586550600.187,-10.254,29.785,34.668,5.859,15.137
1586550600.191,59.082,33.203,35.645,43.945,31.738
1586550600.195,97.656,33.203,36.133,66.895,83.984
1586550600.199,6.348,30.762,33.203,23.926,20.02
1586550600.203,-33.203,33.203,30.762,-4.883,-1.465
1586550600.207,36.133,33.203,30.273,17.578,56.641
1586550600.211,102.539,30.762,30.762,55.664,72.266
1586550600.215,29.785,32.227,30.273,30.273,57.129
1586550600.219,-38.574,33.691,29.297,-8.789,20.508
1586550600.222,19.531,31.25,31.738,11.23,23.438
1586550600.226,106.445,31.25,31.25,54.199,29.785
1586550600.23,70.801,30.273,31.25,44.434,4.395
1586550600.234,-26.367,29.297,33.203,-2.441,49.805
1586550600.238,-4.395,30.762,32.227,3.906,55.176
1586550600.242,80.566,29.297,31.738,45.898,-12.207
1586550600.246,87.402,28.809,34.18,59.082,17.09
1586550600.25,-16.113,30.273,35.156,13.672,22.461
1586550600.254,-25.879,28.809,32.227,-5.371,-32.715
1586550600.258,52.734,30.273,31.738,29.785,15.625
1586550600.262,85.449,32.227,31.25,64.453,51.27
1586550600.265,-10.742,30.762,32.715,36.621,26.367
1586550600.269,-41.504,33.203,32.715,5.859,16.113
1586550600.273,30.273,33.203,32.715,23.438,49.316
1586550600.277,100.098,30.762,35.156,58.105,92.285
1586550600.281,37.598,30.273,35.156,36.133,108.887
1586550600.285,-39.551,30.273,35.645,-2.441,70.801
1586550600.289,10.254,31.25,33.691,9.766,23.926
1586550600.293,94.238,32.715,30.762,53.223,55.176
1586550600.297,67.871,34.18,34.18,54.199,-7.324
1586550600.301,-25.391,35.645,33.691,1.465,-18.066
1586550600.304,-9.766,33.203,31.738,-3.906,-10.254
1586550600.308,62.5,30.762,32.227,32.715,-27.832
1586550600.312,80.078,30.762,32.227,50.293,3.418
1586550600.316,-13.184,29.785,33.203,16.113,-8.301
1586550600.32,-29.297,31.25,32.715,-5.371,9.277
1586550600.324,48.34,30.762,30.762,22.949,45.898
1586550600.328,94.727,29.785,31.25,54.688,7.812
1586550600.332,6.836,30.762,33.203,21.484,-2.441
1586550600.336,-41.504,29.297,32.227,-8.789,84.961
1586550600.34,16.113,29.785,32.227,8.789,106.934
1586550600.344,89.844,31.738,32.227,46.387,86.914
1586550600.347,49.805,32.715,32.715,32.715,45.41
1586550600.351,-30.273,31.25,32.227,-14.16,37.109
1586550600.355,1.465,30.273,29.297,-7.324,72.754
1586550600.359,82.031,29.785,30.273,39.551,58.105
1586550600.363,72.754,30.273,32.227,47.852,13.672
1586550600.367,-23.438,32.227,32.715,-1.465,-31.738
1586550600.371,-16.113,32.715,31.25,-7.324,-12.695
1586550600.375,68.848,33.691,30.273,31.25,37.109
1586550600.379,101.562,32.715,31.738,51.27,78.125
1586550600.383,1.953,34.668,34.18,17.09,52.734
1586550600.387,-29.297,35.645,31.738,-1.953,-10.254
1586550600.39,50.293,34.668,30.762,25.391,-42.48
1586550600.394,113.77,35.645,29.297,54.688,-48.34
1586550600.398,36.133,36.133,27.344,28.809,19.531
1586550600.402,-28.809,37.598,30.273,3.418,19.531
1586550600.406,24.902,37.109,32.715,20.996,-4.395
1586550600.41,103.027,36.133,30.762,58.105,54.688
1586550600.414,58.105,38.086,29.297,47.363,112.305
1586550600.418,-36.133,35.156,32.227,6.836,52.734
1586550600.422,-1.465,34.668,31.738,9.277,45.898
1586550600.426,85.938,37.109,27.832,40.039,91.797
1586550600.429,83.008,34.18,29.785,49.805,65.918
1586550600.433,-14.16,32.715,31.738,7.812,32.715
1586550600.437,-14.16,33.691,30.273,-6.836,11.23
1586550600.441,63.477,31.738,26.855,29.297,-8.789
1586550600.445,99.121,33.691,26.855,63.965,-2.441
1586550600.449,8.301,34.668,30.762,28.809,-36.621
1586550600.453,-25.879,34.18,31.738,-3.418,-37.109
1586550600.457,41.504,33.691,29.785,20.996,20.02
1586550600.461,108.887,33.203,27.832,56.152,-16.113
1586550600.465,40.527,30.273,30.762,29.785,-36.621
1586550600.469,-34.18,29.297,33.691,-0.977,16.602
1586550600.472,9.766,29.785,34.668,19.531,43.457
1586550600.476,85.449,28.809,34.668,48.34,87.891
1586550600.48,57.617,30.273,33.691,33.203,118.652
1586550600.484,-37.598,28.809,34.668,-9.766,8.301
1586550600.488,-9.766,27.832,33.203,-3.418,3.418
1586550600.492,80.566,30.273,31.738,38.086,53.711
1586550600.496,84.473,30.762,32.227,51.27,35.645
1586550600.5,-15.625,28.809,32.227,13.184,1.953
1586550600.504,-21.484,29.785,29.297,-3.418,43.457
1586550600.508,53.223,29.297,27.832,29.297,78.125
1586550600.512,91.797,26.855,30.762,60.059,35.156
1586550600.515,0.488,26.367,31.25,19.531,14.648
1586550600.519,-37.109,28.32,31.738,-13.672,-17.578
1586550600.523,34.668,33.203,29.785,7.812,24.902
1586550600.527,104.98,34.668,29.297,49.805,92.773
1586550600.531,46.387,30.762,33.203,32.227,66.895
1586550600.535,-31.25,27.832,32.227,-10.742,45.41
1586550600.539,11.23,30.762,31.25,-1.465,58.105
1586550600.543,94.238,29.785,32.715,42.969,20.996
1586550600.547,74.219,30.762,33.203,46.875,31.738
1586550600.551,-30.762,35.156,34.668,5.371,66.895
1586550600.554,-17.09,30.762,36.133,1.465,56.641
1586550600.558,73.73,30.273,33.203,40.527,71.777
1586550600.562,90.82,31.738,33.691,57.617,20.996
1586550600.566,-8.789,30.762,32.227,16.113,-19.043
1586550600.57,-17.578,30.273,28.809,3.418,-12.207
1586550600.574,67.871,28.809,30.273,35.156,15.137
1586550600.578,110.84,30.273,27.832,66.406,35.156
1586550600.582,14.16,30.762,26.855,33.691,29.785
1586550600.586,-37.598,29.785,31.738,6.348,25.391
1586550600.59,16.602,30.273,33.203,24.902,30.762
1586550600.594,91.309,33.691,31.738,55.176,30.273
1586550600.597,47.363,33.203,31.25,40.039,20.02
1586550600.601,-29.297,31.25,32.715,-2.441,25.391
1586550600.605,10.742,30.762,32.715,5.371,82.031
1586550600.609,92.285,33.203,31.25,45.898,51.27
1586550600.613,89.844,33.203,32.227,52.734,42.969
1586550600.617,-15.625,29.297,33.203,10.254,61.035
1586550600.621,-14.16,28.809,30.762,5.859,25.879
1586550600.625,73.242,31.25,33.203,43.457,31.25
1586550600.629,96.68,32.715,34.668,62.988,-1.953
1586550600.633,3.906,30.273,34.18,21.973,-33.203
1586550600.637,-28.32,26.855,35.645,0.977,-16.113
1586550600.64,34.18,24.414,36.133,38.574,29.297
1586550600.644,96.68,25.879,37.109,67.871,18.066
1586550600.648,24.902,27.344,37.598,37.109,14.648
1586550600.652,-34.668,27.344,38.086,5.859,66.895
1586550600.656,19.531,27.832,38.086,20.508,52.734
1586550600.66,101.074,27.832,36.133,62.012,-0.977
1586550600.664,64.453,27.832,36.621,52.734,41.016
1586550600.668,-24.902,27.344,36.133,9.766,40.039
1586550600.672,7.324,28.809,36.621,14.648,7.324
1586550600.676,92.773,29.297,39.551,53.223,-2.93
1586550600.679,89.355,28.809,41.504,63.965,20.508
1586550600.683,-25.391,29.297,38.086,12.695,36.621
1586550600.687,-25.391,31.738,35.156,-4.883,28.32
1586550600.691,62.988,30.762,35.156,34.668,5.371
1586550600.695,104.98,28.809,35.645,61.523,4.883
1586550600.699,13.184,30.273,38.574,28.32,-40.527
1586550600.703,-26.367,31.25,37.109,5.371,-21.973
1586550600.707,39.551,30.762,33.691,31.738,-4.395
1586550600.711,104.004,30.273,34.668,71.289,-3.418
1586550600.715,39.062,26.855,37.598,45.898,52.734
1586550600.719,-35.156,26.855,37.109,4.883,15.625
1586550600.722,13.184,32.715,34.668,18.066,32.227
1586550600.726,95.215,33.203,35.156,57.129,92.773
1586550600.73,68.848,32.227,36.621,55.664,52.246
1586550600.734,-21.484,32.227,38.574,14.16,-4.395
1586550600.738,3.906,32.715,38.086,12.207,5.859
1586550600.742,91.309,33.691,35.645,48.34,63.965
1586550600.746,104.98,35.156,35.156,66.406,65.918
1586550600.75,0,31.738,35.645,28.809,13.672
1586550600.754,-19.043,27.832,36.621,8.789,-10.254
1586550600.758,57.617,29.785,36.133,40.527,14.16
1586550600.762,104.492,31.25,34.668,69.336,59.57
1586550600.765,13.672,29.297,35.156,31.738,46.875
1586550600.769,-31.738,29.297,36.621,4.395,8.789
1586550600.773,35.156,29.297,35.645,23.926,15.625
1586550600.777,106.445,28.32,34.668,55.664,43.457
1586550600.781,50.781,29.785,34.18,41.992,42.969
1586550600.785,-29.785,29.297,30.273,4.883,37.109
1586550600.789,20.02,27.344,32.715,14.648,64.941
1586550600.793,102.051,30.273,34.18,46.875,61.035
1586550600.797,70.312,32.227,33.691,36.621,26.855
1586550600.801,-24.414,31.25,35.645,-4.883,48.828
1586550600.804,-6.348,28.809,34.18,0.488,6.836
1586550600.808,70.801,27.832,33.203,34.18,33.203
1586550600.812,83.984,29.785,32.227,53.711,85.938
1586550600.816,-12.207,30.762,30.762,18.066,14.16
1586550600.82,-27.344,28.32,32.227,-2.441,-10.742
1586550600.824,44.922,27.344,30.762,30.762,27.344
1586550600.828,97.168,27.832,26.367,59.57,115.234
1586550600.832,19.043,28.809,30.762,21.484,94.238
1586550600.836,-33.691,27.344,32.227,-8.789,22.461
1586550600.84,28.32,27.832,29.297,15.137,25.391
1586550600.844,102.051,28.809,27.832,55.176,20.508
1586550600.847,46.387,27.344,28.809,43.457,12.695
1586550600.851,-50.781,25.391,29.785,-2.441,51.758
1586550600.855,-13.672,28.32,28.809,-0.488,-0.488
1586550600.859,82.52,31.738,28.809,40.527,-16.602
1586550600.863,84.961,34.18,29.297,52.734,79.102
1586550600.867,-17.09,33.203,29.297,13.672,69.824
1586550600.871,-20.508,31.25,28.809,4.395,-19.531
1586550600.875,61.035,32.227,27.832,33.203,8.789
1586550600.879,103.516,32.227,26.367,56.152,20.508
1586550600.883,6.348,33.691,26.367,18.555,-16.113
1586550600.887,-36.133,36.621,25.879,-9.277,-19.043
1586550600.89,32.715,34.18,25.879,12.207,7.324
1586550600.894,96.68,32.227,25.391,45.898,-11.23
1586550600.898,29.297,32.715,26.855,22.461,16.113
1586550600.902,-39.551,32.227,29.785,-10.742,3.906
1586550600.906,12.695,31.738,28.32,11.23,-20.02
1586550600.91,99.121,33.203,27.344,52.246,52.734
1586550600.914,66.406,31.25,30.273,44.434,38.086
1586550600.918,-30.273,29.785,30.273,0.977,-5.371
1586550600.922,-11.23,29.297,31.738,5.371,29.785
1586550600.926,73.242,29.785,32.715,41.992,45.41
1586550600.929,83.008,29.785,31.25,47.852,-6.348
1586550600.933,-23.926,27.832,30.762,7.812,45.41
1586550600.937,-32.227,29.785,28.809,0,59.082
1586550600.941,60.059,31.738,30.273,36.621,12.695
1586550600.945,102.051,35.156,28.32,63.477,27.344
1586550600.949,-1.953,35.156,29.297,20.02,43.457
1586550600.953,-37.109,33.203,31.738,-7.324,20.508
1586550600.957,39.062,31.25,29.297,21.484,0.488
1586550600.961,106.445,30.762,30.273,58.594,41.992
1586550600.965,39.551,34.668,30.273,37.109,55.664
1586550600.969,-41.504,37.109,29.297,-4.395,45.898
1586550600.972,-1.953,34.668,28.32,4.395,37.598
1586550600.976,83.984,30.762,28.809,47.852,17.578
1586550600.98,60.059,32.715,29.785,50.781,33.691
1586550600.984,-40.039,33.203,30.273,6.348,15.625
1586550600.988,-13.672,30.273,30.273,2.441,19.531
1586550600.992,75.684,30.273,28.32,35.156,56.641
1586550600.996,93.262,30.762,29.297,48.828,22.949
1586550601,-5.859,29.785,30.273,5.371,-27.832
1586550601.004,-25.391,32.715,28.32,-12.695,-15.625
1586550601.008,44.922,30.762,29.785,19.043,26.855
1586550601.012,92.285,28.809,30.762,53.223,49.316
1586550601.015,9.766,30.273,31.25,33.203,68.848
1586550601.019,-36.133,31.738,32.715,6.836,53.711
1586550601.023,29.297,33.691,32.227,24.902,23.926
1586550601.027,107.422,34.668,31.25,61.523,28.809
1586550601.031,47.363,34.18,31.25,40.527,35.645
1586550601.035,-41.504,32.227,31.738,-4.395,25.879
1586550601.039,-1.953,32.227,29.297,4.395,43.945
1586550601.043,80.078,34.18,29.297,42.969,45.41
1586550601.047,70.312,35.156,32.227,45.41,29.297
1586550601.051,-27.832,29.785,35.645,6.348,8.301
1586550601.054,-20.02,27.344,32.715,0.488,-14.648
1586550601.058,65.918,31.25,31.25,34.18,20.508
1586550601.062,92.285,32.715,32.715,58.105,50.781
1586550601.066,-5.371,34.668,31.25,13.184,95.703
1586550601.07,-33.691,30.762,29.297,-10.254,77.148
1586550601.074,36.621,27.832,30.762,21.484,59.57
1586550601.078,97.168,29.297,33.203,58.105,57.129
1586550601.082,25.391,29.785,31.738,30.273,-1.953
1586550601.086,-32.715,29.785,32.227,-7.812,0
1586550601.09,16.113,29.297,33.691,12.207,36.621
1586550601.094,88.867,30.273,32.227,55.664,44.434
1586550601.097,55.176,32.227,34.18,47.852,50.293
1586550601.101,-28.32,35.645,34.668,5.859,33.691
1586550601.105,-2.441,35.645,30.762,11.719,24.414
1586550601.109,79.59,29.785,30.762,51.758,16.602
1586550601.113,81.055,29.785,31.738,57.617,12.207
1586550601.117,-18.066,33.691,29.785,11.719,6.348
1586550601.121,-14.16,32.227,29.785,0.488,33.203
1586550601.125,69.336,30.762,30.273,35.645,54.688
1586550601.129,102.051,30.762,29.297,63.477,38.574
1586550601.133,9.277,32.227,31.25,25.879,18.555
1586550601.137,-21.484,31.25,32.227,-0.977,-7.324
1586550601.14,41.992,31.25,28.809,30.273,16.602
1586550601.144,99.609,29.297,27.832,67.871,73.242
1586550601.148,30.273,30.273,29.785,41.992,55.176
1586550601.152,-38.574,33.203,31.25,2.93,67.383
1586550601.156,9.277,30.762,28.809,13.672,84.473
1586550601.16,89.355,31.738,28.32,53.223,53.223
1586550601.164,62.012,32.227,33.691,56.152,25.391
1586550601.168,-36.133,27.344,36.621,11.719,-16.602
1586550601.172,-4.395,31.738,33.203,9.766,-17.09
1586550601.176,82.031,33.203,33.691,49.805,24.414
1586550601.179,87.402,30.762,33.691,61.523,19.531
1586550601.183,-14.648,30.273,34.18,20.02,13.672
1586550601.187,-30.273,30.273,36.621,0,10.254
1586550601.191,52.734,31.25,33.203,29.785,24.414
1586550601.195,103.516,29.297,33.203,61.035,11.23
1586550601.199,17.09,29.785,36.133,26.855,-2.93
1586550601.203,-22.461,31.25,32.715,3.418,72.754
1586550601.207,41.992,30.273,30.762,20.02,57.129
1586550601.211,104.004,29.297,29.785,48.828,43.945
1586550601.215,37.598,30.273,30.273,31.738,62.012
1586550601.219,-40.527,31.25,31.25,-9.766,66.895
1586550601.222,7.324,30.273,33.691,4.883,92.773
1586550601.226,90.332,30.762,32.227,46.875,66.406
1586550601.23,74.219,32.227,30.762,40.527,33.203
1586550601.234,-18.066,32.715,31.738,-5.371,-41.992
1586550601.238,-11.719,28.32,30.273,-4.395,-47.852
1586550601.242,57.617,27.344,29.785,39.062,71.289
1586550601.246,78.125,29.297,28.809,55.176,95.703
1586550601.25,-14.16,31.25,30.273,14.16,53.223
1586550601.254,-24.414,34.18,33.203,2.93,54.688
1586550601.258,48.34,31.738,32.715,30.273,43.457
1586550601.262,89.355,25.391,32.227,58.105,65.43
1586550601.265,9.766,26.855,32.715,28.32,19.043
1586550601.269,-37.598,31.25,32.715,0,18.555
1586550601.273,26.367,31.738,30.762,21.973,14.16
1586550601.277,104.492,30.762,29.297,53.223,-9.277
1586550601.281,61.035,30.762,30.762,37.598,86.426
1586550601.285,-25.391,26.855,31.25,0.488,84.473
1586550601.289,2.93,25.879,28.809,9.277,16.113
1586550601.293,80.566,29.297,27.344,45.898,14.16
1586550601.297,69.824,30.762,19.531,50.781,35.156
1586550601.301,-23.438,29.785,20.996,12.695,25.879
1586550601.304,-11.719,29.785,30.273,3.906,3.906
1586550601.308,68.848,30.762,30.762,33.203,42.48
1586550601.312,93.75,29.785,30.762,49.805,40.039
1586550601.316,-1.465,31.25,38.086,13.672,-0.488
1586550601.32,-28.809,32.715,35.156,-3.418,-2.441
1586550601.324,39.062,28.809,21.973,16.602,-18.555
1586550601.328,105.957,25.879,24.414,41.016,15.137
1586550601.332,32.227,26.855,29.297,17.09,40.039
1586550601.336,-43.945,28.32,28.809,-17.09,-15.625
1586550601.34,13.672,27.344,28.809,1.953,-10.254
1586550601.344,93.75,26.367,24.414,40.527,19.531
1586550601.347,44.434,25.391,24.414,33.691,-8.301
1586550601.351,-43.457,22.949,27.832,-4.395,-20.02
1586550601.355,-6.836,27.344,25.879,-1.465,14.16
1586550601.359,85.938,30.273,26.855,39.551,100.586
1586550601.363,93.75,30.762,27.832,51.758,117.188
1586550601.367,-18.555,30.273,25.879,3.418,4.883
1586550601.371,-23.438,29.785,24.902,-8.301,-24.414
1586550601.375,62.5,32.715,24.902,27.832,19.043
1586550601.379,101.562,32.227,24.414,52.246,-15.625
1586550601.383,4.883,28.32,25.391,16.602,-31.25
1586550601.387,-39.062,28.32,27.832,-7.812,-13.672
1586550601.39,25.391,24.902,26.367,20.996,32.715
1586550601.394,94.727,25.879,26.367,57.129,64.453
1586550601.398,31.738,30.762,29.297,36.133,44.922
1586550601.402,-38.574,29.297,29.785,0.488,-8.789
1586550601.406,16.602,26.367,32.715,10.254,-12.695
1586550601.41,94.727,27.832,30.762,45.41,15.137
1586550601.414,58.594,30.273,28.32,43.945,17.09
1586550601.418,-32.715,30.762,31.25,4.883,18.066
1586550601.422,-5.859,29.785,31.25,7.324,8.301
1586550601.426,80.078,27.832,30.273,42.48,-12.207
1586550601.429,87.402,26.855,30.762,55.664,41.504
1586550601.433,-21.973,28.32,32.227,15.137,37.109
1586550601.437,-32.227,27.832,32.715,-4.395,2.93
1586550601.441,50.293,29.785,33.203,33.203,6.836
1586550601.445,99.121,31.738,33.691,70.312,16.602
1586550601.449,13.184,28.809,30.273,26.855,35.645
1586550601.453,-32.227,26.367,28.809,-8.789,50.781
1586550601.457,31.25,24.902,27.832,18.555,23.438
1586550601.461,103.027,27.344,27.344,59.082,15.137
1586550601.465,43.457,28.809,31.738,43.457,86.914
1586550601.469,-38.086,28.32,36.133,0.488,78.613
1586550601.472,4.395,30.273,33.691,7.812,22.949
1586550601.476,83.496,28.809,29.297,53.223,63.477
1586550601.48,68.359,28.809,31.25,61.035,64.453
1586550601.484,-22.949,29.297,38.086,13.672,34.668
1586550601.488,-21.484,26.367,39.551,3.906,20.508
1586550601.492,55.664,26.367,35.645,39.551,15.137
1586550601.496,83.496,29.785,34.18,54.199,47.363
1586550601.5,-14.16,30.273,35.156,10.742,32.227
1586550601.504,-30.762,28.809,34.18,-4.883,43.945
1586550601.508,51.758,32.227,33.691,25.879,20.02
1586550601.512,103.516,34.668,33.203,58.105,-26.855
1586550601.515,20.996,34.18,29.785,36.133,-5.371
1586550601.519,-32.227,32.715,29.785,4.883,37.598
1586550601.523,17.578,30.762,30.762,20.02,29.785
1586550601.527,89.355,31.738,25.879,55.664,45.41
1586550601.531,52.734,32.227,28.32,46.387,34.668
1586550601.535,-33.203,32.227,31.738,2.441,21.973
1586550601.539,-5.371,31.738,28.809,12.695,18.555
1586550601.543,86.426,32.715,28.809,52.734,0
1586550601.547,87.402,32.715,31.738,53.711,91.309
1586550601.551,-13.672,31.738,30.762,13.184,75.195
1586550601.554,-13.184,31.25,29.297,1.953,18.555
1586550601.558,72.754,30.273,30.273,39.062,35.645
1586550601.562,98.633,29.297,31.25,64.453,45.41
1586550601.566,3.418,28.809,33.203,22.949,23.926
1586550601.57,-20.996,27.832,31.25,1.953,5.371
1586550601.574,42.48,26.367,29.785,31.25,21.484
1586550601.578,109.863,27.832,28.809,60.547,26.367
1586550601.582,45.41,31.25,27.832,31.25,9.277
1586550601.586,-22.949,29.297,29.297,-4.395,-4.395
1586550601.59,24.414,26.855,29.785,8.301,6.348
1586550601.594,93.75,27.344,31.738,49.805,14.648
1586550601.597,63.477,29.297,32.715,47.852,16.602
1586550601.601,-26.367,30.762,31.738,10.254,78.125
1586550601.605,-8.789,27.832,32.715,6.348,77.637
1586550601.609,69.336,26.855,33.691,39.551,36.133
1586550601.613,80.078,28.32,32.227,54.688,26.855
1586550601.617,-15.625,26.367,33.691,11.719,44.922
1586550601.621,-25.879,26.367,37.109,-1.953,32.715
1586550601.625,55.664,29.297,33.203,28.809,5.859
1586550601.629,100.586,30.273,30.273,57.617,68.359
1586550601.633,5.371,27.832,32.715,24.902,78.125
1586550601.637,-35.645,25.391,33.203,-3.418,33.691
1586550601.64,38.574,26.855,31.738,16.602,28.809
1586550601.644,105.957,29.785,30.762,53.711,21.484
1586550601.648,39.551,26.367,33.203,34.668,2.93
1586550601.652,-38.574,21.484,32.715,-6.348,-54.199
1586550601.656,0.977,22.461,29.297,8.789,-92.285
1586550601.66,78.125,25.879,28.809,51.758,8.789
1586550601.664,54.199,27.344,31.738,46.387,64.941
1586550601.668,-35.156,26.855,30.273,-1.465,59.082
1586550601.672,-20.02,28.32,29.785,-1.953,45.898
1586550601.676,62.012,30.762,32.227,38.086,58.594
1586550601.679,86.914,34.18,29.785,53.223,83.008
1586550601.683,-3.418,34.668,31.738,12.207,36.621
1586550601.687,-19.043,30.273,32.715,-7.324,-12.695
1586550601.691,52.734,28.32,31.738,26.855,-17.578
1586550601.695,106.934,28.32,33.691,63.477,-22.949
1586550601.699,24.414,27.832,34.668,34.668,-4.883
1586550601.703,-32.715,29.297,32.715,0.488,38.086
1586550601.707,30.762,29.785,31.25,18.066,82.52
1586550601.711,112.793,28.809,31.25,59.082,47.852
1586550601.715,55.664,29.297,31.738,47.363,8.789
1586550601.719,-35.645,31.25,32.227,4.883,47.852
1586550601.722,9.766,32.715,35.156,11.23,69.824
1586550601.726,92.285,29.785,36.133,52.734,57.129
1586550601.73,71.289,27.344,34.18,55.664,17.09
1586550601.734,-24.902,21.484,31.738,4.395,21.484
1586550601.738,-18.066,19.043,28.809,-8.789,19.043
1586550601.742,69.824,26.367,30.273,33.691,50.293
1586550601.746,102.051,27.344,33.203,62.5,55.176
1586550601.75,0.488,25.391,31.738,19.043,4.395
1586550601.754,-27.832,26.367,27.344,-8.301,-0.977
1586550601.758,41.016,28.32,29.785,20.508,38.086
1586550601.762,92.285,30.273,29.297,52.734,96.68
1586550601.765,23.926,35.645,29.785,34.668,97.656
1586550601.769,-34.668,32.715,31.25,-3.418,46.387
1586550601.773,17.578,21.973,27.832,4.395,17.09
1586550601.777,96.68,25.879,26.367,50.781,41.504
1586550601.781,53.223,34.668,30.273,38.574,79.59
1586550601.785,-38.574,31.738,27.344,-7.324,62.012
1586550601.789,-11.23,31.25,21.973,-3.418,73.73
1586550601.793,78.613,29.297,26.367,35.645,73.73
1586550601.797,82.52,27.832,30.273,52.246,62.988
1586550601.801,-14.648,32.227,34.668,8.789,94.727
1586550601.804,-21.484,32.715,31.738,0.488,48.34
1586550601.808,53.711,30.273,27.832,38.086,3.418
1586550601.812,92.285,29.297,28.32,53.711,3.906
1586550601.816,-1.953,29.785,33.203,20.996,21.973
1586550601.82,-38.086,29.297,32.715,-1.953,13.184
1586550601.824,26.855,25.879,29.297,11.719,19.531
1586550601.828,93.75,24.414,34.18,48.34,-12.695
1586550601.832,34.668,30.762,35.156,38.574,-14.648
1586550601.836,-36.133,31.25,35.645,3.906,-8.789
1586550601.84,7.812,27.832,37.109,7.812,-7.812
1586550601.844,88.379,29.785,29.785,41.992,10.254
1586550601.847,67.383,32.227,31.25,39.551,-7.812
1586550601.851,-18.555,30.273,32.715,1.465,-8.789
1586550601.855,1.953,27.344,28.809,2.93,-58.594
1586550601.859,77.637,26.855,33.691,41.016,0.977
1586550601.863,78.613,28.809,33.691,53.711,79.102
1586550601.867,-16.113,28.32,33.203,10.742,48.34
1586550601.871,-18.555,27.344,34.668,-1.953,19.043
1586550601.875,56.152,27.832,31.25,35.156,64.941
1586550601.879,100.586,30.762,29.785,67.871,83.984
1586550601.883,20.02,28.32,32.227,32.227,43.457
1586550601.887,-37.109,33.203,31.738,-2.441,43.457
1586550601.89,12.695,40.039,27.832,16.602,25.879
1586550601.894,91.797,39.551,24.414,52.734,28.32
1586550601.898,37.598,37.598,21.973,30.273,100.098
1586550601.902,-39.062,34.18,23.926,-11.23,61.035
1586550601.906,7.812,32.227,27.344,5.859,1.953
1586550601.91,90.332,31.25,30.273,48.828,8.301
1586550601.914,75.684,35.156,33.691,47.363,21.484
1586550601.918,-25.391,33.203,34.668,8.789,57.129
1586550601.922,-17.09,30.273,34.18,3.418,35.645
1586550601.926,71.777,34.668,30.273,34.18,54.688
1586550601.929,94.727,35.645,32.227,52.734,57.129
1586550601.933,-6.348,35.645,32.715,15.137,4.883
1586550601.937,-33.691,33.691,31.738,-3.418,-6.348
1586550601.941,42.48,30.762,31.738,21.484,1.465
1586550601.945,100.098,29.785,30.273,51.758,-2.93
1586550601.949,8.301,28.32,34.18,27.832,37.109
1586550601.953,-47.852,27.344,35.156,-7.812,46.875
1586550601.957,15.625,28.32,31.738,3.418,56.152
1586550601.961,90.332,32.227,29.785,42.969,35.645
1586550601.965,43.457,33.691,31.738,36.621,64.941
1586550601.969,-34.668,31.738,35.645,-0.488,73.73
1586550601.972,1.465,31.738,34.18,9.766,33.691
1586550601.976,77.637,32.227,30.762,45.41,80.078
1586550601.98,69.824,29.785,32.227,47.852,52.246
1586550601.984,-23.926,30.762,35.156,7.812,24.902
1586550601.988,-18.066,30.762,35.156,3.418,63.477
1586550601.992,62.988,31.738,34.668,42.48,20.508
1586550601.996,93.262,33.691,34.668,58.594,-1.465
1586550602,2.93,32.227,37.598,18.555,97.656
1586550602.004,-24.414,32.715,35.645,-2.441,73.242
1586550602.008,48.828,32.227,30.762,24.902,55.176
1586550602.012,109.375,31.738,32.227,55.176,65.918
1586550602.015,35.645,34.668,35.156,29.297,-17.578
1586550602.019,-27.832,30.273,34.668,0,-17.578
1586550602.023,16.602,28.32,33.203,15.137,34.668
1586550602.027,88.867,29.785,34.668,46.875,37.109
1586550602.031,51.27,29.785,34.18,41.504,9.277
1586550602.035,-32.227,31.25,31.738,-1.465,23.926
1586550602.039,1.465,31.738,32.227,-3.418,72.754
1586550602.043,77.637,30.273,34.668,37.598,22.949
1586550602.047,76.66,26.855,32.227,53.223,-29.297
1586550602.051,-20.996,27.344,32.715,16.113,-46.875
1586550602.054,-23.438,29.785,35.156,0.977,-12.207
1586550602.058,57.617,34.668,32.227,30.273,-18.066
1586550602.062,99.609,37.598,32.715,59.082,-31.25
1586550602.066,7.324,35.645,35.156,22.949,19.043
1586550602.07,-28.809,36.133,32.715,-5.859,45.41
1586550602.074,45.41,34.18,30.762,16.602,9.277
1586550602.078,113.77,30.273,30.762,53.711,0
1586550602.082,44.922,28.32,31.25,37.598,54.199
1586550602.086,-36.621,30.273,30.762,6.348,77.148
1586550602.09,2.441,26.855,33.203,20.02,26.367
1586550602.094,80.078,22.949,34.668,58.105,32.227
1586550602.097,55.664,27.344,31.738,45.898,91.797
1586550602.101,-30.762,31.738,30.762,-1.465,55.176
1586550602.105,-7.812,32.715,30.762,-1.953,-5.859
1586550602.109,70.801,33.203,28.32,29.297,39.062
1586550602.113,79.59,33.203,27.832,43.945,55.664
1586550602.117,-19.043,32.715,27.832,1.953,49.805
1586550602.121,-27.832,33.203,24.414,-9.277,-0.977
1586550602.125,48.828,32.715,29.297,28.809,-5.859
1586550602.129,94.238,32.715,31.738,54.688,31.25
1586550602.133,14.648,34.18,32.715,30.273,8.301
1586550602.137,-32.227,33.203,34.18,8.301,41.992
1586550602.14,30.762,33.203,32.715,24.414,61.035
1586550602.144,108.887,33.691,33.691,58.105,49.805
1586550602.148,59.082,33.691,35.645,37.109,-44.434
1586550602.152,-22.949,32.227,34.668,-7.812,-51.758
1586550602.156,20.02,33.203,33.203,1.953,17.09
1586550602.16,97.656,33.203,32.715,48.828,-4.395
1586550602.164,70.312,30.273,34.668,53.711,8.301
1586550602.168,-29.297,29.297,36.133,6.836,46.875
1586550602.172,-18.555,32.227,33.203,4.395,17.09
1586550602.176,65.918,34.668,34.668,40.527,-19.531
1586550602.179,98.145,35.156,36.621,60.547,-20.996
1586550602.183,0,34.668,38.086,28.809,-4.883
1586550602.187,-25.879,35.645,35.645,18.066,-15.137
1586550602.191,47.852,35.645,34.18,40.527,-20.508
1586550602.195,104.492,34.668,34.18,63.477,35.645
1586550602.199,26.367,34.18,33.691,37.598,76.66
1586550602.203,-30.762,36.621,36.133,2.93,83.496
1586550602.207,26.855,32.715,31.738,16.113,45.41
1586550602.211,104.004,28.809,27.832,45.41,9.277
1586550602.215,57.617,25.879,31.738,36.621,-58.594
1586550602.219,-37.598,26.367,26.367,0.977,-22.461
1586550602.222,-3.418,33.203,23.438,2.441,-30.273
1586550602.226,87.891,34.668,31.738,46.875,-17.578
1586550602.23,82.52,35.645,35.645,50.781,46.875
1586550602.234,-11.719,31.25,36.133,2.93,26.367
1586550602.238,-9.766,29.785,33.203,-4.395,4.883
1586550602.242,58.105,35.156,32.227,35.156,7.812
1586550602.246,92.285,37.598,39.551,67.871,95.215
1586550602.25,-4.883,31.25,36.621,28.32,62.5
1586550602.254,-40.039,26.855,28.32,0.488,-13.672
1586550602.258,41.504,28.32,31.738,28.809,-25.391
1586550602.262,108.887,29.785,38.086,64.941,8.789
1586550602.265,33.691,24.902,32.715,34.18,47.363
1586550602.269,-36.133,25.879,26.855,-8.301,44.922
1586550602.273,18.066,29.785,25.879,10.742,72.754
1586550602.277,96.191,31.25,27.832,53.711,65.43
1586550602.281,55.664,32.715,30.273,40.527,48.34
1586550602.285,-33.203,33.691,32.715,-0.488,52.246
1586550602.289,-3.906,33.691,31.25,7.812,15.137
1586550602.293,78.613,32.227,30.273,47.852,-1.465
1586550602.297,85.449,30.762,34.668,61.523,9.277
1586550602.301,-9.277,31.25,32.227,14.16,4.883
1586550602.304,-7.324,33.203,26.855,-5.371,-9.766
1586550602.308,67.383,27.832,28.32,34.18,23.926
1586550602.312,98.633,26.855,30.273,67.871,36.621
1586550602.316,15.137,33.203,33.203,30.273,57.617
1586550602.32,-15.625,33.203,35.645,0.977,9.277
1586550602.324,32.227,31.738,31.738,17.578,-21.973
1586550602.328,88.379,30.273,26.855,52.246,56.152
1586550602.332,29.297,28.32,30.273,38.086,64.941
1586550602.336,-38.086,28.32,29.297,-0.488,-5.371
1586550602.34,18.555,25.879,27.832,14.648,-7.324
1586550602.344,98.633,27.832,29.297,54.688,36.621
1586550602.347,77.637,30.762,31.738,51.27,19.043
1586550602.351,-23.438,29.785,32.227,7.812,16.113
1586550602.355,-15.625,29.297,25.879,-1.465,59.082
1586550602.359,66.406,29.297,26.367,35.645,69.824
1586550602.363,82.52,30.273,29.297,53.223,29.297
1586550602.367,-12.207,32.227,31.738,10.254,17.09
1586550602.371,-27.344,30.273,31.25,-3.906,14.648
1586550602.375,49.316,29.297,30.273,27.832,53.223
1586550602.379,107.91,31.25,30.762,52.246,44.434
1586550602.383,25.879,28.809,31.25,20.996,40.039
1586550602.387,-39.062,27.832,33.203,-5.371,11.23
1586550602.39,14.16,30.762,31.25,13.672,-5.859
1586550602.394,95.215,33.203,28.809,53.711,56.152
1586550602.398,42.969,32.715,29.297,38.574,57.129
1586550602.402,-41.016,34.668,27.832,-3.906,54.688
1586550602.406,8.301,31.25,28.809,9.766,21.484
1586550602.41,91.797,24.902,30.762,52.246,13.672
1586550602.414,73.242,29.785,30.762,54.688,76.172
1586550602.418,-33.203,32.715,30.273,11.719,44.434
1586550602.422,-19.531,32.715,32.227,14.648,13.184
1586550602.426,77.637,35.156,33.691,49.805,45.898
1586550602.429,107.422,36.621,32.715,63.477,71.289
1586550602.433,2.441,36.621,33.691,24.902,14.16
1586550602.437,-27.832,35.156,33.691,1.953,44.434
1586550602.441,47.852,34.668,32.227,33.691,62.012
1586550602.445,104.492,33.203,35.156,64.453,-12.207
1586550602.449,30.273,33.203,35.645,34.668,15.625
1586550602.453,-24.902,31.25,35.156,6.836,37.109
1586550602.457,29.297,28.809,33.691,22.949,25.391
1586550602.461,104.98,33.691,32.227,59.57,18.555
1586550602.465,56.641,35.645,34.668,53.223,-12.207
1586550602.469,-37.109,33.691,35.645,10.254,34.668
1586550602.472,5.859,35.156,33.203,12.207,47.852
1586550602.476,92.285,35.156,29.785,47.363,-6.836
1586550602.48,87.402,33.203,31.738,57.129,-45.41
1586550602.484,-15.625,34.668,34.18,13.672,49.316
1586550602.488,-23.926,32.227,32.227,2.441,75.684
1586550602.492,54.199,30.762,31.25,35.645,43.945
1586550602.496,94.238,33.203,32.227,66.895,27.832
1586550602.5,1.465,32.227,33.691,33.203,7.324
1586550602.504,-25.879,32.227,33.203,-2.93,50.293
1586550602.508,51.27,30.762,34.668,25.879,11.23
1586550602.512,111.328,28.809,37.109,67.383,17.578
1586550602.515,44.922,29.297,35.645,41.504,83.008
1586550602.519,-23.926,28.809,36.133,-3.906,43.945
1586550602.523,14.648,26.367,35.156,11.23,18.066
1586550602.527,85.449,25.391,31.25,52.246,44.922
1586550602.531,48.828,28.809,30.762,40.527,18.066
1586550602.535,-43.945,29.297,32.227,0,1.465
1586550602.539,-16.602,27.832,34.668,3.418,34.668
1586550602.543,65.43,25.879,33.691,44.922,69.336
1586550602.547,84.961,30.273,32.715,61.035,55.664
1586550602.551,-8.789,32.227,32.715,15.625,-12.207
1586550602.554,-18.066,27.832,32.227,-0.488,-21.484
1586550602.558,51.27,31.738,31.25,30.273,22.949
1586550602.562,94.727,33.203,31.738,56.152,52.246
1586550602.566,13.184,30.762,33.691,22.949,41.016
1586550602.57,-31.25,32.227,32.715,-2.441,15.137
1586550602.574,35.156,32.715,33.691,18.066,79.102
1586550602.578,105.469,30.273,33.691,58.105,38.086
1586550602.582,48.828,26.367,32.715,47.852,-58.105
1586550602.586,-29.297,30.762,35.156,6.348,-13.184
1586550602.59,5.371,36.133,35.645,18.555,22.949
1586550602.594,84.473,34.18,33.203,63.965,40.039
1586550602.597,77.637,33.203,31.738,57.617,34.668
1586550602.601,-20.508,31.25,31.738,11.719,-1.953
1586550602.605,-12.695,31.738,32.227,11.719,11.719
1586550602.609,73.242,36.133,32.227,43.945,65.918
1586550602.613,95.215,37.598,31.738,60.547,84.473
1586550602.617,0.488,35.156,34.18,20.02,11.23
1586550602.621,-6.836,34.18,33.203,-6.836,-42.48
1586550602.625,69.824,36.133,30.273,18.555,-10.742
1586550602.629,95.215,33.203,32.715,56.152,21.973
1586550602.633,6.836,28.809,35.645,24.902,45.898
1586550602.637,-34.18,32.715,31.25,-9.766,85.449
1586550602.64,29.785,33.691,32.227,15.137,46.875
1586550602.644,104.004,31.25,33.203,61.035,30.273
1586550602.648,56.152,33.203,31.738,46.875,72.754
1586550602.652,-31.738,34.668,35.156,2.93,64.453
1586550602.656,4.395,34.668,36.133,13.184,9.277
1586550602.66,82.031,32.227,35.156,48.828,39.062
1586550602.664,74.707,32.715,36.621,52.246,7.812
1586550602.668,-24.902,32.715,37.109,8.301,9.766
1586550602.672,-23.438,31.25,37.598,0.488,48.828
1586550602.676,69.336,31.738,39.062,35.156,25.879
1586550602.679,100.098,33.691,36.621,52.734,44.434
1586550602.683,5.859,31.25,36.133,9.766,60.059
1586550602.687,-20.02,28.809,36.133,-8.301,29.297
1586550602.691,47.852,29.785,33.691,23.926,39.062
1586550602.695,110.352,29.785,32.227,58.105,70.801
1586550602.699,36.133,31.25,35.156,42.969,47.852
1586550602.703,-26.367,33.203,35.156,9.766,13.184
1586550602.707,31.738,31.25,32.227,20.508,38.086
1586550602.711,99.121,27.344,32.227,52.734,59.082
1586550602.715,49.805,29.297,33.203,44.434,21.484
1586550602.719,-35.156,32.227,32.227,6.836,-0.488
1586550602.722,0,32.715,32.715,10.742,8.301
1586550602.726,84.961,32.715,32.227,50.781,44.434
1586550602.73,82.031,30.273,30.273,59.082,55.664
1586550602.734,-15.625,28.32,31.738,17.578,21.973
1586550602.738,-9.766,32.715,29.297,2.93,5.859
1586550602.742,62.5,34.668,28.32,34.668,11.719
1586550602.746,97.656,33.691,31.25,61.035,21.973
1586550602.75,9.277,33.203,32.227,19.531,0.977
1586550602.754,-40.527,30.273,27.832,-8.789,3.418
1586550602.758,24.902,29.785,25.879,20.02,61.035
1586550602.762,95.703,29.297,27.832,62.012,73.242
1586550602.765,39.062,29.785,26.367,38.574,9.766
1586550602.769,-31.25,33.691,26.855,-5.371,-6.836
1586550602.773,16.113,31.25,31.738,12.207,3.906
1586550602.777,98.145,32.227,30.762,54.688,42.48
1586550602.781,61.035,34.18,30.273,48.828,101.562
1586550602.785,-35.645,31.25,31.25,4.395,13.184
1586550602.789,-14.648,31.738,30.273,4.395,-44.434
1586550602.793,76.172,35.645,30.762,46.387,10.742
1586550602.797,107.422,36.133,29.297,56.641,21.973
1586550602.801,-1.465,29.297,28.32,1.465,-15.625
1586550602.804,-29.297,31.25,32.715,-4.883,0.488
1586550602.808,56.152,38.086,20.996,40.527,34.668
1586550602.812,105.469,25.879,13.184,56.641,27.344
1586550602.816,11.719,19.531,29.785,18.066,25.879
1586550602.82,-47.852,28.32,41.992,-12.207,26.367
1586550602.824,13.184,31.25,40.527,8.301,24.902
1586550602.828,92.285,30.762,37.109,51.27,41.992
1586550602.832,49.316,37.109,38.086,41.016,-9.277
1586550602.836,-20.508,34.18,43.457,4.395,-19.043
1586550602.84,6.836,24.414,41.016,2.441,11.719
1586550602.844,76.66,26.855,33.203,35.156,42.969
1586550602.847,67.871,29.297,32.715,44.922,94.727
1586550602.851,-26.855,30.273,33.203,3.418,72.754
1586550602.855,-22.461,28.809,30.762,-1.953,58.105
1586550602.859,64.941,27.832,29.785,36.621,45.898
1586550602.863,95.215,30.762,31.738,60.547,24.902
1586550602.867,-7.812,31.738,35.645,21.973,3.418
1586550602.871,-30.273,30.762,34.668,-5.371,-20.996
1586550602.875,47.363,30.762,35.156,20.508,-7.324
1586550602.879,97.168,27.832,34.18,52.734,-36.621
1586550602.883,12.207,24.902,30.762,26.855,-17.578
1586550602.887,-40.527,27.344,31.25,-5.859,24.902
1586550602.89,22.461,28.32,30.762,8.301,-0.977
1586550602.894,95.215,28.32,28.32,51.27,62.988
1586550602.898,53.711,29.297,31.738,41.504,33.203
1586550602.902,-28.809,30.762,32.227,-6.348,-3.418
1586550602.906,-0.977,32.715,29.785,2.441,7.324
1586550602.91,83.984,31.25,29.785,42.48,27.832
1586550602.914,83.984,30.273,31.25,48.34,12.207
1586550602.918,-20.996,34.18,33.203,8.301,25.391
1586550602.922,-22.949,31.25,32.227,2.93,112.793
1586550602.926,61.523,28.809,32.227,37.598,97.168
1586550602.929,88.379,33.691,33.203,50.781,60.059
1586550602.933,-9.277,36.133,31.738,9.766,30.762
1586550602.937,-38.574,34.668,31.738,-5.371,17.09
1586550602.941,28.32,34.668,29.297,25.391,37.109
1586550602.945,103.516,35.645,30.273,58.105,43.945
1586550602.949,35.645,37.598,34.18,31.25,30.762
1586550602.953,-41.504,40.039,31.738,-2.93,35.156
1586550602.957,13.184,37.598,27.832,14.648,44.434
1586550602.961,89.355,31.25,25.391,50.781,52.246
1586550602.965,55.176,31.25,28.32,40.527,58.594
1586550602.969,-31.25,30.273,26.367,-5.859,92.285
1586550602.972,-7.812,28.809,23.438,-8.789,78.613
1586550602.976,75.684,32.227,24.902,29.297,62.5
1586550602.98,86.426,36.133,25.879,45.41,25.391
1586550602.984,-14.16,31.738,29.297,11.719,12.695
1586550602.988,-25.391,29.785,30.273,3.418,51.758
1586550602.992,58.105,33.203,30.273,34.18,52.734
1586550602.996,110.84,35.156,28.32,58.105,74.707
1586550603,16.113,37.598,32.227,27.832,25.879
1586550603.004,-26.855,35.645,37.598,14.648,-11.23
1586550603.008,40.039,28.809,24.902,21.973,52.246
1586550603.012,98.145,27.344,20.02,37.598,50.293
1586550603.015,40.527,27.344,32.715,25.879,14.16
1586550603.019,-32.715,28.32,35.645,-8.789,12.207
1586550603.023,11.23,32.715,32.715,0.977,30.273
1586550603.027,97.656,28.809,33.203,46.387,46.387
1586550603.031,82.031,29.297,31.738,49.316,26.855
1586550603.035,-15.625,36.133,27.832,2.93,-10.742
1586550603.039,-5.859,35.645,29.785,3.906,-3.418
1586550603.043,60.547,32.227,34.668,41.016,-16.602
1586550603.047,71.777,30.273,33.691,52.246,41.992
1586550603.051,-21.484,28.809,31.738,4.883,69.824
1586550603.054,-42.969,29.297,29.785,-17.09,-33.203
1586550603.058,35.156,30.273,28.809,26.855,19.531
1586550603.062,93.75,29.785,30.273,60.547,69.336
1586550603.066,9.766,31.25,30.762,21.973,44.434
1586550603.07,-41.992,29.785,32.715,-6.348,32.715
1586550603.074,23.926,29.785,32.715,15.137,-49.805
1586550603.078,98.633,34.18,30.273,51.27,-8.301
1586550603.082,55.176,33.203,29.785,36.133,70.801
1586550603.086,-25.391,31.25,30.762,-8.301,66.406
1586550603.09,12.207,31.25,29.297,-0.488,73.73
1586550603.094,93.75,30.762,28.809,40.039,73.73
1586550603.097,77.637,33.203,31.25,45.41,65.43
1586550603.101,-20.508,34.668,30.762,5.371,55.664
1586550603.105,-14.16,32.715,29.297,9.766,37.598
1586550603.109,73.73,31.25,28.809,48.34,48.828
1586550603.113,105.469,30.762,29.785,64.453,54.199
1586550603.117,5.859,30.762,33.203,31.25,44.434
1586550603.121,-15.625,30.273,35.156,7.812,-20.996
1586550603.125,51.27,31.25,34.668,34.668,-20.02
1586550603.129,101.074,33.691,33.691,65.918,57.617
1586550603.133,20.996,30.762,30.762,26.367,2.93
1586550603.137,-43.945,25.391,31.25,-4.395,-54.199
1586550603.14,27.832,26.367,29.297,12.207,26.855
1586550603.144,106.445,28.809,27.832,43.457,76.66
1586550603.148,57.617,27.832,32.227,31.738,13.672
1586550603.152,-21.973,24.902,34.18,-12.207,-7.324
1586550603.156,0.488,29.785,32.715,3.418,-8.301
1586550603.16,72.266,29.297,31.25,49.316,20.02
1586550603.164,73.73,28.809,30.762,59.082,65.918
1586550603.168,-21.973,29.785,32.227,17.09,-10.742
1586550603.172,-20.02,27.832,34.18,7.324,-57.617
1586550603.176,52.734,27.832,30.762,28.809,-18.555
1586550603.179,95.703,28.32,28.809,46.387,3.906
1586550603.183,17.09,26.855,35.645,19.043,-7.812
1586550603.187,-21.973,27.832,36.621,-8.789,-14.648
1586550603.191,43.945,28.809,35.156,17.578,-5.859
1586550603.195,105.957,28.32,35.645,63.965,-46.875
1586550603.199,36.133,28.32,36.133,43.457,-10.254
1586550603.203,-29.785,26.855,35.156,2.93,38.086
1586550603.207,24.414,26.855,33.691,14.648,-32.715
1586550603.211,111.328,27.832,32.715,58.594,20.996
1586550603.215,79.102,30.273,34.18,58.594,84.961
1586550603.219,-23.438,31.25,34.668,11.23,43.457
1586550603.222,3.418,33.203,34.668,11.23,40.527
1586550603.226,82.031,32.715,34.18,48.34,98.145
1586550603.23,81.543,29.297,34.668,57.617,62.988
1586550603.234,-21.484,32.227,32.715,9.766,5.859
1586550603.238,-21.973,33.203,30.273,0,53.711
1586550603.242,66.406,29.785,28.809,39.062,67.383
1586550603.246,112.793,31.738,25.879,63.477,21.973
1586550603.25,23.926,32.715,29.785,25.879,-14.648
1586550603.254,-33.691,26.855,31.738,-8.789,-20.02
1586550603.258,29.785,22.461,29.785,9.277,67.383
1586550603.262,106.445,27.344,31.25,54.199,65.43
1586550603.265,44.434,30.762,32.227,42.48,-17.09
1586550603.269,-38.574,31.738,32.715,-2.93,-12.695
1586550603.273,5.859,33.691,33.203,3.418,-21.973
1586550603.277,92.773,30.273,32.715,48.34,-49.316
1586550603.281,77.148,32.715,32.715,50.293,-15.137
1586550603.285,-8.789,34.18,35.156,8.301,37.598
1586550603.289,11.23,28.809,36.133,4.395,11.719
1586550603.293,82.031,29.297,34.18,39.551,-4.395
1586550603.297,94.727,31.738,32.715,59.57,31.25
1586550603.301,-2.93,30.762,33.691,19.043,51.27
1586550603.304,-25.391,30.762,34.668,1.465,-5.371
1586550603.308,44.922,32.715,33.691,40.039,-28.809
1586550603.312,99.121,33.203,33.691,72.266,-8.789
1586550603.316,22.461,32.715,35.645,40.527,20.996
1586550603.32,-29.297,31.25,34.18,6.836,46.875
1586550603.324,21.973,33.691,34.668,25.391,82.031
1586550603.328,90.82,33.691,34.18,64.453,100.586
1586550603.332,49.805,29.785,33.203,50.781,49.316
1586550603.336,-36.621,27.344,39.551,0.977,56.641
1586550603.34,-0.977,26.367,39.551,2.93,10.254
1586550603.344,87.891,27.344,35.645,45.41,-0.977
1586550603.347,69.336,32.227,41.504,48.34,30.762
1586550603.351,-37.109,32.227,41.992,5.859,28.809
1586550603.355,-25.391,28.32,38.086,1.953,32.227
1586550603.359,62.012,28.32,37.109,37.598,48.34
1586550603.363,91.309,29.785,36.133,61.523,93.75
1586550603.367,-4.883,28.32,36.133,20.508,52.246
1586550603.371,-25.391,29.297,35.156,-6.348,42.969
1586550603.375,44.922,27.832,32.227,24.414,-1.953
1586550603.379,100.586,24.902,36.621,63.965,-44.434
1586550603.383,26.367,26.367,36.621,40.039,21.484
1586550603.387,-39.551,27.832,30.273,-3.418,3.906
1586550603.39,15.137,27.832,31.25,7.324,-14.648
1586550603.394,103.516,28.32,31.738,51.758,50.293
1586550603.398,70.801,32.715,34.18,46.387,55.176
1586550603.402,-36.133,32.227,35.645,0.977,59.57
1586550603.406,-15.137,25.879,33.203,6.348,30.762
1586550603.41,73.73,22.949,32.715,41.992,-2.441
1586550603.414,74.707,28.32,31.25,46.875,29.785
1586550603.418,-20.02,35.645,34.18,12.207,8.301
1586550603.422,-18.066,32.715,38.086,3.906,22.461
1586550603.426,52.734,26.367,34.668,28.809,50.293
1586550603.429,92.285,27.344,31.25,56.641,36.621
1586550603.433,5.371,27.832,31.738,26.855,-1.953
1586550603.437,-41.016,25.391,34.18,0.977,-64.453
1586550603.441,27.344,26.855,34.18,18.555,-21.484
1586550603.445,106.934,29.297,32.227,48.34,69.824
1586550603.449,46.387,31.25,34.18,29.297,74.219
1586550603.453,-36.133,31.25,29.785,-13.184,63.477
1586550603.457,5.371,30.273,27.344,2.441,66.895
1586550603.461,89.844,29.785,33.691,45.898,36.621
1586550603.465,66.406,30.273,35.645,42.969,23.438
1586550603.469,-25.391,29.297,33.691,-7.812,27.832
1586550603.472,-9.277,27.344,32.715,-11.719,-8.789
1586550603.476,75.684,30.273,31.25,38.574,28.809
1586550603.48,83.984,31.738,32.227,53.711,79.59
1586550603.484,-20.508,33.203,33.691,12.207,41.504
1586550603.488,-28.809,33.203,34.18,1.465,20.996
1586550603.492,42.969,29.297,34.668,20.996,13.184
1586550603.496,93.262,32.227,33.203,52.246,36.621
1586550603.5,19.043,38.086,31.25,25.391,93.75
1586550603.504,-28.809,36.621,30.273,-12.695,-7.324
1586550603.508,35.156,35.645,30.762,9.766,3.418
1586550603.512,106.445,36.133,33.203,50.781,61.035
1586550603.515,47.852,34.668,35.156,34.668,7.324
1586550603.519,-29.785,32.227,33.691,-8.789,39.062
1586550603.523,2.93,27.832,28.32,0.488,41.016
1586550603.527,73.73,28.809,26.855,50.781,46.875
1586550603.531,60.547,33.203,34.18,55.664,18.555
1586550603.535,-33.691,36.621,34.18,6.836,-3.418
1586550603.539,-19.043,36.621,31.738,4.395,-13.184
1586550603.543,63.965,34.668,36.133,36.133,-29.297
1586550603.547,86.426,37.109,31.25,49.316,42.48
1586550603.551,-6.348,37.109,25.879,9.766,51.758
1586550603.554,-25.391,34.668,29.785,-6.348,-12.695
1586550603.558,46.875,37.109,31.738,27.344,-24.414
1586550603.562,105.957,36.621,31.738,61.035,-14.648
1586550603.566,23.926,33.203,33.203,36.133,38.574
1586550603.57,-38.574,31.738,35.156,7.324,9.277
1586550603.574,26.367,32.715,32.715,23.438,41.992
1586550603.578,102.539,32.715,33.203,62.012,77.637
1586550603.582,48.828,34.668,35.156,44.434,53.223
1586550603.586,-36.133,35.156,31.738,0.488,60.547
1586550603.59,4.395,32.715,35.156,8.301,19.043
1586550603.594,85.938,33.691,35.156,44.434,20.508
1586550603.597,84.473,33.691,31.738,55.176,48.828
1586550603.601,-5.859,29.785,29.785,9.277,47.852
1586550603.605,-6.348,29.297,27.832,-4.883,43.457
1586550603.609,62.5,33.203,29.785,31.25,38.574
1586550603.613,92.285,31.25,29.785,55.664,11.23
1586550603.617,-9.766,28.32,31.738,22.949,32.715
1586550603.621,-56.152,28.809,34.18,3.418,16.113
1586550603.625,21.973,27.832,33.203,24.414,8.789
1586550603.629,95.703,27.344,33.203,54.688,30.762
1586550603.633,24.902,29.785,36.621,31.25,26.367
1586550603.637,-39.551,32.715,36.133,-3.906,49.805
1586550603.64,18.066,35.156,32.715,8.789,58.105
1586550603.644,99.121,29.297,32.715,47.852,41.992
1586550603.648,64.941,28.809,33.203,43.457,77.637
1586550603.652,-32.715,28.809,34.18,3.906,49.805
1586550603.656,-7.812,27.344,36.133,13.184,35.156
1586550603.66,76.172,28.32,35.645,57.129,40.039
1586550603.664,89.355,28.32,34.18,57.617,14.648
1586550603.668,0.977,30.273,35.156,9.766,44.922
1586550603.672,-12.207,31.25,31.738,4.395,39.551
1586550603.676,64.453,30.273,31.738,33.203,33.203
1586550603.679,98.145,32.227,37.109,65.918,57.129
1586550603.683,10.742,27.832,38.574,35.645,68.848
1586550603.687,-20.02,24.902,38.086,1.465,29.785
1586550603.691,41.992,30.762,36.621,20.996,57.617
1586550603.695,105.957,32.227,35.156,59.082,81.055
1586550603.699,35.645,31.738,36.133,42.969,21.973
1586550603.703,-49.805,29.785,36.133,-0.488,-14.16
1586550603.707,-0.977,28.32,32.227,6.836,-31.738
1586550603.711,83.984,30.273,30.273,50.781,71.777
1586550603.715,64.941,31.738,31.738,53.223,104.98
1586550603.719,-26.367,25.391,33.691,16.113,35.645
1586550603.722,-13.184,20.996,33.203,7.812,0.488
1586550603.726,65.918,26.367,30.762,35.156,-19.043
1586550603.73,89.844,27.344,30.273,57.617,31.738
1586550603.734,-2.93,25.391,34.18,24.414,5.371
1586550603.738,-26.855,28.32,33.691,5.859,-26.855
1586550603.742,51.758,29.785,26.367,29.785,43.457
1586550603.746,107.422,29.297,27.344,61.035,30.762
1586550603.75,21.484,30.273,32.715,35.156,14.648
1586550603.754,-33.203,30.273,32.715,3.906,21.973
1586550603.758,21.484,31.738,30.273,16.602,33.691
1586550603.762,99.121,30.273,29.297,51.27,53.711
1586550603.765,59.082,30.273,30.762,39.551,55.664
1586550603.769,-19.043,31.25,30.762,4.883,70.312
1586550603.773,14.16,29.297,30.273,13.184,44.434
1586550603.777,90.82,29.297,32.715,44.434,37.109
1586550603.781,83.984,28.809,33.203,45.41,15.137
1586550603.785,-18.555,28.809,34.18,2.93,-32.715
1586550603.789,-12.207,27.832,35.156,2.93,7.812
1586550603.793,76.172,22.949,34.668,44.922,32.227
1586550603.797,105.469,21.484,35.645,62.988,35.645
1586550603.801,2.93,27.344,38.086,24.414,12.207
1586550603.804,-24.414,32.715,36.621,2.93,-9.277
1586550603.808,57.617,31.25,31.738,27.344,22.461
1586550603.812,117.676,29.297,29.297,61.035,31.25
1586550603.816,36.621,33.691,33.691,38.086,43.945
1586550603.82,-29.297,33.203,39.551,5.371,1.953
1586550603.824,18.555,30.273,38.574,20.508,2.93
1586550603.828,99.609,30.762,34.668,62.5,36.621
1586550603.832,58.594,34.668,36.621,53.711,37.109
1586550603.836,-34.668,35.156,38.086,6.348,-19.043
1586550603.84,5.859,34.668,34.668,4.395,-17.578
1586550603.844,92.285,33.691,32.715,40.039,41.504
1586550603.847,83.496,34.18,34.668,54.199,62.5
1586550603.851,-15.625,35.156,36.621,13.184,31.738
1586550603.855,-13.672,33.203,34.668,0.977,11.23
1586550603.859,65.918,33.691,35.156,36.133,31.738
1586550603.863,102.051,36.133,36.621,63.965,42.969
1586550603.867,11.23,36.621,40.527,30.273,47.852
1586550603.871,-29.785,35.645,40.527,5.371,13.672
1586550603.875,36.133,32.715,35.156,31.738,-3.418
1586550603.879,105.957,31.25,34.668,61.035,62.012
1586550603.883,40.527,35.645,33.691,33.691,22.949
1586550603.887,-32.715,34.668,30.762,2.93,3.906
1586550603.89,12.695,28.809,30.762,16.602,65.918
1586550603.894,94.727,29.785,30.762,55.664,86.914
1586550603.898,67.871,35.156,34.18,51.758,13.672
1586550603.902,-20.508,34.668,37.598,8.301,-0.977
1586550603.906,5.371,34.18,35.156,14.648,41.016
1586550603.91,85.449,34.668,33.203,55.664,36.133
1586550603.914,97.656,33.691,35.156,63.477,11.719
1586550603.918,-0.488,32.715,38.086,19.531,24.902
1586550603.922,-21.973,28.809,35.156,9.277,9.766
1586550603.926,46.875,26.367,32.715,40.527,-13.184
1586550603.929,98.633,29.785,33.203,63.477,46.387
1586550603.933,15.625,31.25,34.18,32.715,31.738
1586550603.937,-32.715,28.809,35.156,0.977,-10.254
1586550603.941,34.18,28.809,32.227,24.902,-1.953
1586550603.945,101.562,26.367,32.227,66.406,-2.93
1586550603.949,43.457,25.391,36.621,49.805,20.02
1586550603.953,-35.156,29.785,34.668,13.672,29.297
1586550603.957,2.441,31.25,30.273,19.043,-27.344
1586550603.961,89.844,33.203,32.227,55.664,10.742
1586550603.965,65.918,32.227,34.668,59.082,60.547
1586550603.969,-29.785,31.738,33.691,12.207,45.41
1586550603.972,-5.859,35.156,31.738,6.348,36.621
1586550603.976,74.219,36.621,30.762,38.574,13.672
1586550603.98,95.703,35.645,31.738,52.734,29.785
1586550603.984,0,33.203,28.32,17.578,71.289
1586550603.988,-25.391,34.668,24.902,3.906,56.641
1586550603.992,46.875,34.18,29.785,35.645,53.223
1586550603.996,104.492,31.25,30.273,67.383,96.191
1586550604,12.695,33.691,30.762,32.227,42.48
1586550604.004,-48.34,35.156,32.715,-3.418,27.344
1586550604.008,26.367,34.668,32.227,20.508,48.828
1586550604.012,110.352,34.668,33.203,61.035,64.941
1586550604.015,58.594,34.668,33.691,47.363,61.035
1586550604.019,-33.691,32.715,33.691,4.395,-15.137
1586550604.023,-8.789,30.273,33.691,4.395,-25.879
1586550604.027,67.383,27.832,31.738,49.316,-2.441
1586550604.031,62.012,27.832,32.227,58.105,46.387
1586550604.035,-31.738,31.25,32.227,10.742,78.613
1586550604.039,-21.484,32.715,31.738,-0.977,43.945
1586550604.043,59.082,30.762,30.273,23.926,69.336
1586550604.047,91.309,32.715,27.344,46.387,49.805
1586550604.051,0.977,34.668,30.273,12.695,-46.387
1586550604.054,-29.785,35.156,33.691,-7.812,-18.555
1586550604.058,43.457,37.109,35.156,25.879,54.199
1586550604.062,96.191,32.715,32.715,63.477,4.883
1586550604.066,17.578,29.785,31.25,38.574,4.883
1586550604.07,-39.551,27.832,30.273,-1.953,37.109
1586550604.074,23.438,25.391,28.809,6.348,0
1586550604.078,111.328,33.691,27.832,44.434,28.809
1586550604.082,77.637,41.992,26.855,39.062,53.711
1586550604.086,-14.648,41.504,29.297,0.488,39.551
1586550604.09,9.766,37.598,33.691,0.488,16.602
1586550604.094,90.332,36.621,34.668,34.18,34.668
1586550604.097,94.727,36.621,33.691,48.828,101.562
1586550604.101,-9.277,36.133,34.18,13.672,40.527
1586550604.105,-22.461,31.25,35.156,5.371,-21.973
1586550604.109,66.895,30.273,34.18,42.969,-21.973
1586550604.113,112.305,31.25,33.203,70.312,12.695
1586550604.117,11.719,29.785,36.133,32.715,50.293
1586550604.121,-25.391,29.785,31.25,0.488,0.488
1586550604.125,46.387,32.715,25.879,17.578,-20.02
1586550604.129,104.492,32.227,31.738,53.223,69.824
1586550604.133,39.551,29.297,38.574,38.086,73.242
1586550604.137,-31.25,30.762,36.621,-3.906,48.34
1586550604.14,9.277,31.25,33.691,7.324,94.238
1586550604.144,88.867,31.738,30.762,54.688,66.406
1586550604.148,69.824,35.645,28.809,52.734,31.25
1586550604.152,-20.508,32.715,31.25,6.836,35.156
1586550604.156,-12.695,27.832,33.691,-2.441,64.453
1586550604.16,63.965,30.273,35.645,31.738,11.23
1586550604.164,90.332,30.273,34.668,49.805,-7.324
1586550604.168,-10.742,29.297,33.691,2.441,23.926
1586550604.172,-38.574,28.809,32.715,-18.555,-12.695
1586550604.176,41.504,27.344,31.738,21.484,50.781
1586550604.179,95.215,27.832,32.227,63.965,30.762
1586550604.183,13.672,29.297,31.738,35.645,-35.645
1586550604.187,-36.621,28.32,31.25,1.953,21.973
1586550604.191,26.855,27.832,33.203,21.484,36.621
1586550604.195,102.051,27.344,34.668,56.152,20.996
1586550604.199,49.316,26.367,35.645,39.551,1.953
1586550604.203,-36.621,28.32,33.691,-6.836,-28.32
1586550604.207,-2.441,27.344,33.691,-0.488,-2.93
1586550604.211,86.426,25.391,35.156,43.945,35.645
1586550604.215,76.172,26.367,34.18,50.781,36.621
1586550604.219,-23.926,27.344,35.156,5.859,41.504
1586550604.222,-19.531,28.809,35.156,4.395,29.785
1586550604.226,59.082,27.832,35.645,44.434,46.875
1586550604.23,85.938,25.879,38.086,63.965,52.246
1586550604.234,-2.93,30.273,39.062,30.273,42.48
1586550604.238,-26.855,30.273,36.133,12.695,42.969
1586550604.242,50.293,26.855,33.203,37.109,-2.441
1586550604.246,117.188,31.25,36.133,66.895,-4.395
1586550604.25,23.438,33.203,38.086,34.668,37.109
1586550604.254,-47.363,31.25,31.738,-3.418,41.504
1586550604.258,15.137,31.25,29.785,18.555,62.5
1586550604.262,86.914,32.715,32.715,59.082,77.148
1586550604.265,39.062,30.762,30.762,43.457,65.918
1586550604.269,-40.527,28.809,32.715,-3.418,40.527
1586550604.273,-2.93,25.879,33.203,6.836,43.457
1586550604.277,88.379,24.902,29.297,55.176,24.414
1586550604.281,97.656,31.25,30.762,65.43,67.383
1586550604.285,3.418,35.156,32.227,17.09,64.941
1586550604.289,-8.789,32.715,31.738,4.883,-26.855
1586550604.293,60.547,31.25,31.738,37.598,18.066
1586550604.297,92.773,34.668,32.227,64.453,88.867
1586550604.301,-4.883,36.133,34.18,26.855,44.434
1586550604.304,-37.598,33.203,35.156,-3.906,74.219
1586550604.308,41.992,33.203,35.645,23.926,43.457
1586550604.312,107.91,33.203,33.691,56.641,24.902
1586550604.316,36.621,32.227,33.691,35.645,39.551
1586550604.32,-26.367,32.227,35.645,4.395,56.152
1586550604.324,22.949,33.203,32.715,27.344,61.523
1586550604.328,97.656,33.691,28.809,67.871,21.484
1586550604.332,64.941,32.715,29.297,54.688,23.926
1586550604.336,-27.832,31.738,31.25,10.254,-17.578
1586550604.34,-4.395,31.25,31.25,4.883,-2.441
1586550604.344,79.59,29.297,32.227,41.016,22.461
1586550604.347,89.355,29.297,33.203,57.617,-0.977
1586550604.351,-5.859,28.32,30.762,20.02,0
1586550604.355,-15.137,26.855,32.227,6.836,13.672
1586550604.359,71.777,29.297,31.25,30.762,-7.812
1586550604.363,119.629,32.227,30.762,55.176,-13.184
1586550604.367,23.438,28.32,31.738,21.973,22.461
1586550604.371,-10.742,30.273,34.18,-2.441,13.672
1586550604.375,50.781,34.668,35.156,21.484,2.441
1586550604.379,104.98,31.25,33.691,55.664,15.625
1586550604.383,43.945,29.785,34.668,36.133,21.484
1586550604.387,-49.805,28.32,35.645,-8.301,11.719
1586550604.39,-15.137,26.855,35.645,0.977,-4.883
1586550604.394,80.078,30.273,36.133,44.434,37.598
1586550604.398,62.012,31.25,35.156,46.387,66.406
1586550604.402,-34.18,27.832,33.691,5.371,84.473
1586550604.406,-16.602,28.32,34.668,4.883,80.078
1586550604.41,65.43,30.762,34.18,38.086,5.371
1586550604.414,82.031,34.18,33.691,53.223,16.602
1586550604.418,-12.695,34.18,36.621,19.531,27.832
1586550604.422,-25.879,32.227,34.668,5.859,45.898
1586550604.426,57.617,33.691,31.738,35.156,41.992
1586550604.429,107.422,35.156,33.691,62.012,17.578
1586550604.433,16.602,31.25,34.18,25.879,18.066
1586550604.437,-44.434,26.855,32.715,-13.184,36.133
1586550604.441,23.926,26.367,28.809,8.301,9.766
1586550604.445,105.957,28.809,28.809,53.223,19.043
1586550604.449,45.41,29.785,32.227,36.621,59.57
1586550604.453,-42.969,29.785,31.738,-8.301,-0.977
1586550604.457,-7.324,31.738,29.785,0.488,20.02
1586550604.461,78.613,30.762,30.762,48.34,23.926
1586550604.465,76.66,30.762,34.18,50.293,46.387
1586550604.469,-14.648,32.715,34.668,5.859,96.68
1586550604.472,-11.23,30.273,33.203,1.953,45.41
1586550604.476,59.57,27.832,30.273,34.668,38.086
