timestamps,TP9,AF7,AF8,TP10,Right AUX
1586550865.004,88.867,27.344,27.832,50.781,43.457
1586550865.008,78.613,27.344,28.809,53.223,18.555
1586550865.012,-24.414,24.902,28.32,14.648,-33.203
1586550865.015,-17.09,28.809,28.32,7.324,-4.883
1586550865.019,68.359,27.832,28.32,43.945,40.039
1586550865.023,101.562,26.855,27.344,64.941,78.613
1586550865.027,-2.441,28.32,24.414,21.973,70.312
1586550865.031,-36.133,29.297,26.367,-1.953,45.41
1586550865.035,37.109,32.227,27.832,23.438,54.199
1586550865.039,98.145,28.32,25.879,58.594,72.266
1586550865.043,22.461,26.367,26.855,39.062,36.621
1586550865.047,-52.734,28.32,31.25,7.324,66.406
1586550865.051,5.371,26.367,30.273,20.02,68.359
1586550865.055,101.562,24.902,26.855,58.105,51.758
1586550865.058,62.5,26.367,27.344,44.434,89.355
1586550865.062,-34.668,31.25,24.902,-0.977,30.762
1586550865.066,-8.301,31.738,24.414,3.418,5.371
1586550865.07,79.102,31.25,26.855,38.086,11.23
1586550865.074,90.82,34.18,24.902,41.992,-12.207
1586550865.078,-10.254,33.203,24.902,4.883,-8.789
1586550865.082,-23.438,31.738,25.391,-2.441,25.879
1586550865.086,62.012,30.762,23.926,32.227,15.137
1586550865.09,106.445,33.203,22.949,60.547,27.832
1586550865.094,13.184,34.18,23.926,21.484,35.156
1586550865.098,-36.133,34.668,23.926,-4.883,64.453
1586550865.101,30.762,32.715,23.438,19.043,64.941
1586550865.105,111.816,32.227,26.367,54.199,31.738
1586550865.109,34.668,30.762,28.32,35.156,56.641
1586550865.113,-50.293,29.297,26.367,0.977,-37.109
1586550865.117,2.441,28.809,29.297,18.555,-54.199
1586550865.121,95.215,25.879,28.32,54.199,36.133
1586550865.125,68.848,27.344,26.855,47.852,88.867
1586550865.129,-34.18,27.832,25.391,9.766,50.781
1586550865.133,-15.625,28.32,22.949,11.23,-5.859
1586550865.137,66.406,26.855,27.832,36.133,2.441
1586550865.14,83.008,20.02,29.297,43.457,-32.715
1586550865.144,-21.484,20.508,27.344,3.418,-8.301
1586550865.148,-42.969,26.855,27.832,-7.812,41.992
1586550865.152,42.969,32.227,25.391,27.344,40.039
1586550865.156,102.051,31.738,25.879,57.617,34.668
1586550865.16,11.23,28.809,29.785,28.809,88.867
1586550865.164,-40.527,30.273,29.297,-0.488,120.605
1586550865.168,23.438,28.32,23.438,20.996,15.137
1586550865.172,99.609,29.785,22.461,58.594,-14.648
1586550865.176,46.875,32.715,29.785,42.48,27.344
1586550865.18,-39.551,31.25,30.273,7.812,68.359
1586550865.183,-4.395,28.809,28.32,11.23,49.316
1586550865.187,85.938,27.832,25.391,43.945,-13.184
1586550865.191,74.219,27.832,23.926,47.363,21.973
1586550865.195,-35.156,26.367,29.785,5.859,42.48
1586550865.199,-21.484,29.785,25.391,6.348,5.859
1586550865.203,73.73,32.227,18.555,37.109,24.414
1586550865.207,95.703,30.273,19.531,47.852,57.617
1586550865.211,-4.395,28.809,22.949,14.16,37.598
1586550865.215,-34.18,25.879,24.902,-2.93,16.113
1586550865.219,47.363,27.344,22.461,24.414,48.34
1586550865.223,113.77,32.227,20.508,52.246,55.664
1586550865.226,31.738,31.738,20.996,22.949,8.789
1586550865.23,-24.414,31.738,21.973,-4.395,-34.18
1586550865.234,26.367,32.227,22.949,15.625,-32.715
1586550865.238,98.633,31.738,23.438,58.594,21.484
1586550865.242,55.176,31.738,24.414,47.852,51.27
1586550865.246,-36.621,31.25,22.949,0.488,56.641
1586550865.25,-7.324,32.227,21.973,6.348,29.785
1586550865.254,86.914,27.344,22.461,48.34,7.324
1586550865.258,83.008,24.902,25.391,56.152,-14.16
1586550865.262,-29.297,35.645,26.367,9.766,-25.391
1586550865.265,-26.855,37.109,21.973,0.977,34.18
1586550865.269,54.688,29.785,19.531,36.133,36.621
1586550865.273,91.309,31.738,18.555,53.711,45.41
1586550865.277,-2.441,33.203,20.508,12.695,53.223
1586550865.281,-37.109,28.809,23.438,-6.836,70.312
1586550865.285,31.738,28.809,26.367,19.531,24.902
1586550865.289,101.562,27.344,27.832,49.805,-0.977
1586550865.293,30.762,30.273,27.344,32.227,22.949
1586550865.297,-41.504,30.273,25.391,2.93,-41.992
1586550865.301,13.672,29.297,22.949,19.043,34.18
1586550865.305,102.539,32.715,22.949,52.734,71.289
1586550865.308,74.707,30.273,23.438,44.922,23.438
1586550865.312,-25.391,29.785,20.996,11.719,2.93
1586550865.316,-9.766,32.227,21.973,10.254,25.391
1586550865.32,80.078,28.809,26.367,46.875,70.312
1586550865.324,104.004,32.227,25.391,63.965,18.066
1586550865.328,-1.953,33.691,25.879,19.043,-6.836
1586550865.332,-22.461,31.25,25.391,0.488,-38.574
1586550865.336,62.988,33.203,25.879,38.086,-52.246
1586550865.34,114.258,31.738,26.855,68.359,54.199
1586550865.344,22.949,28.809,26.367,34.668,84.961
1586550865.348,-29.297,28.32,24.414,3.418,10.254
1586550865.351,31.738,29.297,22.949,22.461,-26.855
1586550865.355,110.84,28.32,20.02,63.477,20.02
1586550865.359,50.293,24.414,17.578,41.504,51.758
1586550865.363,-34.18,28.32,19.043,-0.488,25.391
1586550865.367,11.719,32.227,23.926,18.555,37.109
1586550865.371,97.656,33.691,26.367,57.617,52.246
1586550865.375,64.941,33.203,24.414,52.734,78.613
1586550865.379,-30.762,31.25,24.414,11.719,22.461
1586550865.383,-11.719,33.203,23.926,2.441,23.926
1586550865.387,62.988,29.297,22.461,38.574,51.27
1586550865.39,91.309,28.809,23.438,58.594,23.926
1586550865.394,-8.301,29.785,25.879,12.207,40.527
1586550865.398,-29.297,28.809,26.367,-8.301,31.738
1586550865.402,55.176,30.762,27.832,24.414,13.672
1586550865.406,109.863,33.691,30.273,55.176,56.641
1586550865.41,20.508,31.25,27.344,23.438,64.453
1586550865.414,-37.598,24.414,20.508,-1.953,12.695
1586550865.418,25.391,25.879,20.508,19.043,18.555
1586550865.422,104.98,29.785,20.996,56.152,61.035
1586550865.426,58.594,29.297,18.555,46.875,71.289
1586550865.43,-25.879,27.832,16.602,11.719,38.086
1586550865.433,-3.906,23.926,20.996,8.301,22.949
1586550865.437,64.453,16.602,33.203,40.527,48.34
1586550865.441,63.965,16.113,35.645,50.293,81.543
1586550865.445,-22.949,15.625,36.133,9.277,39.551
1586550865.449,-28.809,13.672,37.109,0,-69.336
1586550865.453,50.781,15.137,37.109,30.762,-56.152
1586550865.457,97.656,17.09,37.598,49.805,32.715
1586550865.461,-0.977,20.02,34.18,8.301,-35.156
1586550865.465,-39.062,21.484,30.273,-8.789,7.324
1586550865.469,35.645,21.484,29.785,22.461,39.062
1586550865.473,102.051,21.973,29.297,53.711,10.742
1586550865.476,18.555,24.902,29.297,32.227,53.711
1586550865.48,-57.617,22.461,29.785,-6.836,84.961
1586550865.484,3.418,22.949,29.297,5.859,68.848
1586550865.488,90.82,24.414,29.297,49.805,56.152
1586550865.492,53.223,22.949,30.762,41.016,48.34
1586550865.496,-38.574,19.043,31.738,0.488,-10.254
1586550865.5,-14.648,15.137,30.762,6.348,-20.996
1586550865.504,70.801,21.973,29.297,43.457,-57.129
1586550865.508,77.637,28.32,27.832,48.828,-45.898
1586550865.512,-22.461,28.809,28.32,0.977,-12.695
1586550865.515,-20.996,27.832,29.785,-8.301,-18.555
1586550865.519,62.012,28.809,26.855,29.297,22.949
1586550865.523,97.168,27.832,26.855,54.688,42.48
1586550865.527,2.93,26.367,29.297,22.461,62.012
1586550865.531,-36.133,26.367,25.879,-4.395,54.688
1586550865.535,37.598,27.344,24.414,17.09,7.324
1586550865.539,107.422,29.785,24.902,48.828,-9.277
1586550865.543,43.945,29.785,26.367,27.832,46.875
1586550865.547,-27.344,30.762,25.391,-5.859,58.594
1586550865.551,13.184,30.762,22.461,7.812,34.668
1586550865.555,95.703,29.297,21.973,52.734,125.488
1586550865.558,68.359,29.297,24.902,50.781,117.188
1586550865.562,-29.297,30.762,26.367,8.789,53.711
1586550865.566,-9.277,30.273,22.461,12.207,40.527
1586550865.57,71.777,29.297,23.438,46.875,25.391
1586550865.574,84.473,28.809,24.414,55.664,19.043
1586550865.578,-7.812,28.809,24.902,14.648,-55.176
1586550865.582,-20.996,30.762,28.809,2.93,-7.812
1586550865.586,63.965,29.785,30.273,37.109,79.59
1586550865.59,117.188,26.855,27.832,66.895,68.848
1586550865.594,18.555,28.32,29.785,32.227,47.363
1586550865.598,-35.156,34.18,30.762,6.348,1.465
1586550865.601,32.227,33.203,27.344,28.32,16.602
1586550865.605,113.77,33.203,25.391,63.477,72.754
1586550865.609,55.664,35.156,29.297,38.574,-10.742
1586550865.613,-38.574,30.273,29.297,-10.742,-46.387
1586550865.617,-1.953,29.297,28.809,5.371,8.301
1586550865.621,80.566,30.762,28.32,49.805,17.09
1586550865.625,69.824,33.691,26.367,51.27,72.754
1586550865.629,-23.926,34.668,26.855,12.207,34.668
1586550865.633,-14.16,31.738,29.785,14.648,7.812
1586550865.637,72.754,30.762,31.738,43.945,54.199
1586550865.64,102.539,34.18,28.32,57.129,87.891
1586550865.644,-0.488,33.203,24.414,16.113,18.555
1586550865.648,-36.621,29.297,26.367,-6.348,1.465
1586550865.652,45.41,30.762,25.879,22.949,40.527
1586550865.656,110.84,30.762,23.926,57.129,25.879
1586550865.66,29.785,28.32,27.832,30.762,51.758
1586550865.664,-35.645,28.32,28.32,2.441,30.273
1586550865.668,25.391,29.297,25.391,19.531,5.371
1586550865.672,109.863,28.809,22.949,50.781,4.883
1586550865.676,60.059,28.809,22.461,39.551,4.883
1586550865.68,-30.273,31.738,25.391,2.441,0
1586550865.683,-0.488,26.855,28.32,6.836,-12.207
1586550865.687,81.055,20.02,25.879,45.41,25.391
1586550865.691,80.566,28.32,24.902,50.293,22.461
1586550865.695,-26.367,31.738,24.902,6.348,25.391
1586550865.699,-27.832,29.785,25.879,0.488,37.598
1586550865.703,64.941,28.32,27.344,33.691,18.066
1586550865.707,103.516,26.367,28.809,59.57,23.926
1586550865.711,6.836,27.832,30.762,24.902,15.137
1586550865.715,-36.621,28.809,30.273,-0.977,-2.441
1586550865.719,33.203,29.785,25.879,20.02,32.227
1586550865.723,103.027,29.297,23.438,52.734,67.871
1586550865.726,24.902,22.949,26.855,35.156,30.273
1586550865.73,-48.34,24.414,25.879,1.953,-7.324
1586550865.734,3.906,27.832,26.855,21.973,-4.395
1586550865.738,93.75,28.809,29.785,66.406,23.438
1586550865.742,66.406,31.25,30.762,56.641,20.02
1586550865.746,-30.762,32.227,29.297,14.16,-23.438
1586550865.75,-4.883,29.297,27.344,17.578,28.32
1586550865.754,88.379,30.762,28.32,51.27,96.68
1586550865.758,92.773,32.715,31.25,59.57,65.43
1586550865.762,-7.324,32.227,29.785,21.973,34.18
1586550865.765,-13.184,31.25,21.973,8.301,-9.766
1586550865.769,58.594,33.691,20.508,33.203,-15.137
1586550865.773,105.957,31.738,27.344,53.711,54.688
1586550865.777,13.184,30.273,31.738,20.02,34.18
1586550865.781,-31.25,35.645,29.297,1.465,12.695
1586550865.785,39.062,28.809,30.273,26.367,6.348
1586550865.789,114.746,24.902,29.785,62.5,52.246
1586550865.793,54.199,34.18,28.32,39.062,71.777
1586550865.797,-33.691,36.133,24.902,-3.418,44.434
1586550865.801,7.812,34.668,22.461,18.555,68.359
1586550865.805,95.215,31.25,23.926,55.664,38.086
1586550865.808,69.336,30.762,25.879,52.734,-20.508
1586550865.812,-23.438,32.227,27.832,8.789,-0.488
1586550865.816,-3.906,29.297,29.785,-10.254,56.152
1586550865.82,81.055,30.762,25.391,29.297,47.852
1586550865.824,94.238,32.227,20.996,43.457,47.852
1586550865.828,-16.602,30.762,22.461,-2.441,1.953
1586550865.832,-48.34,28.809,25.391,-8.789,-42.48
1586550865.836,27.832,30.762,25.391,26.367,11.719
1586550865.84,92.773,33.691,25.879,50.293,28.809
1586550865.844,10.742,29.297,30.762,20.02,20.508
1586550865.848,-48.34,29.785,29.297,-8.301,46.387
1586550865.851,17.09,30.762,26.367,11.719,28.32
1586550865.855,98.145,28.809,26.855,56.152,48.34
1586550865.859,43.457,28.809,25.879,42.969,122.559
1586550865.863,-39.062,28.809,26.855,3.906,67.383
1586550865.867,1.465,30.273,25.879,13.184,-0.488
1586550865.871,92.773,31.25,21.484,52.246,30.762
1586550865.875,84.473,31.738,23.926,56.152,53.711
1586550865.879,-18.555,28.32,26.855,9.766,86.914
1586550865.883,-2.93,21.973,25.879,12.207,83.008
1586550865.887,77.148,25.391,23.438,42.48,76.66
1586550865.89,97.168,32.715,19.531,53.223,62.5
1586550865.894,1.953,37.109,19.043,23.438,28.32
1586550865.898,-33.691,41.992,18.555,-2.441,68.359
1586550865.902,47.852,40.527,19.043,25.879,10.254
1586550865.906,119.141,39.062,22.949,60.059,-6.348
1586550865.91,40.527,41.504,24.414,29.785,13.672
1586550865.914,-29.297,39.551,20.508,-1.953,16.113
1586550865.918,17.09,35.156,20.508,11.719,17.578
1586550865.922,103.027,33.691,20.508,54.199,-9.766
1586550865.926,79.59,33.691,21.973,47.363,14.16
1586550865.93,-16.113,32.227,21.484,-0.977,18.066
1586550865.933,1.465,32.715,19.531,8.301,64.941
1586550865.937,88.379,31.738,20.996,49.805,60.059
1586550865.941,86.426,33.203,20.996,54.199,34.668
1586550865.945,-18.555,33.691,24.414,16.602,23.438
1586550865.949,-17.578,31.25,25.879,3.418,30.273
1586550865.953,72.266,32.227,23.438,37.109,7.324
1586550865.957,114.258,32.715,20.996,62.5,36.621
1586550865.961,14.16,31.25,23.438,26.367,57.129
1586550865.965,-36.133,28.809,23.926,3.906,7.812
1586550865.969,30.273,29.785,21.484,23.438,16.113
1586550865.973,114.258,29.785,20.996,52.246,35.645
1586550865.976,56.152,30.273,20.996,25.879,39.551
1586550865.98,-20.508,30.273,22.949,-2.441,5.859
1586550865.984,20.996,32.227,19.531,21.973,-37.109
1586550865.988,100.098,31.738,18.066,57.617,24.414
1586550865.992,60.059,26.367,21.484,47.852,52.246
1586550865.996,-38.086,27.344,22.461,5.371,18.555
1586550866,-21.484,28.809,21.484,5.859,60.547
1586550866.004,74.707,32.227,21.973,47.363,67.383
1586550866.008,103.516,34.18,22.949,64.453,59.082
1586550866.012,-11.23,31.738,21.973,21.484,55.176
1586550866.015,-35.156,29.785,21.484,0,56.152
1586550866.019,51.27,26.855,20.02,31.738,-0.977
1586550866.023,105.469,26.367,19.043,56.641,-27.344
1586550866.027,11.719,25.391,18.555,17.09,-22.461
1586550866.031,-39.551,23.438,16.113,-15.137,-24.414
1586550866.035,20.02,23.438,17.09,10.254,0
1586550866.039,97.656,26.855,20.02,49.805,51.27
1586550866.043,48.828,25.879,23.926,35.156,48.34
1586550866.047,-39.062,23.438,27.832,-0.488,-33.203
1586550866.051,1.953,28.32,26.855,10.254,59.57
1586550866.055,99.121,30.762,27.344,54.199,71.289
1586550866.058,82.031,34.18,27.832,57.617,21.484
1586550866.062,-20.996,35.156,26.367,15.625,23.926
1586550866.066,-14.648,33.203,26.855,10.742,-15.137
1586550866.07,65.918,31.25,24.902,44.434,3.906
1586550866.074,88.379,28.809,25.391,64.941,83.984
1586550866.078,-8.789,27.832,27.832,25.879,82.52
1586550866.082,-22.461,30.273,26.855,12.207,18.555
1586550866.086,51.758,31.25,24.902,37.109,38.086
1586550866.09,110.84,30.273,23.926,63.965,53.223
1586550866.094,24.902,29.297,25.879,35.156,33.691
1586550866.098,-46.387,25.879,27.344,0.977,19.531
1586550866.101,12.207,22.949,27.832,22.461,-54.688
1586550866.105,96.68,24.414,26.855,59.57,-38.086
1586550866.109,49.316,25.879,27.344,42.48,-0.977
1586550866.113,-35.645,26.367,27.832,5.371,43.945
1586550866.117,-5.859,27.832,27.344,14.16,65.43
1586550866.121,79.102,28.809,28.809,49.316,20.996
1586550866.125,79.102,28.809,29.297,62.988,9.766
1586550866.129,-23.438,25.391,28.32,19.043,6.836
1586550866.133,-23.926,25.879,31.738,7.812,71.289
1586550866.137,59.57,29.785,32.227,43.945,54.688
1586550866.14,92.285,27.344,29.785,58.594,32.715
1586550866.144,-8.301,25.879,30.762,25.391,39.551
1586550866.148,-41.504,26.367,32.715,11.23,-17.09
1586550866.152,35.156,27.344,32.227,33.203,17.578
1586550866.156,105.957,28.32,29.785,60.059,28.32
1586550866.16,27.832,25.879,31.25,35.645,1.953
1586550866.164,-41.992,27.344,27.344,0.488,36.133
1586550866.168,16.113,29.297,25.391,11.23,21.484
1586550866.172,102.051,26.367,27.832,51.27,22.949
1586550866.176,64.453,21.973,26.855,48.34,25.879
1586550866.18,-35.645,29.785,29.297,4.883,39.062
1586550866.183,-2.93,38.574,28.32,7.324,82.52
1586550866.187,83.496,36.133,24.414,47.852,92.285
1586550866.191,83.008,30.273,25.391,56.152,34.18
1586550866.195,-16.602,27.832,30.762,12.207,-15.137
1586550866.199,-30.273,29.297,31.25,-4.395,-10.742
1586550866.203,53.223,30.762,28.32,28.32,-35.156
1586550866.207,106.445,32.715,28.809,56.152,-74.219
1586550866.211,15.137,33.691,29.785,14.16,-63.965
1586550866.215,-26.855,33.203,25.391,-12.695,41.016
1586550866.219,33.691,34.668,20.02,16.113,42.969
1586550866.223,103.027,33.691,22.949,46.387,81.055
1586550866.226,39.062,33.691,25.391,30.762,48.34
1586550866.23,-41.016,34.18,24.902,-0.977,-20.996
1586550866.234,3.418,33.203,24.414,0.488,41.016
1586550866.238,94.238,35.156,21.973,38.086,34.668
1586550866.242,72.266,35.645,26.367,39.062,20.508
1586550866.246,-28.809,35.156,26.855,-3.906,23.926
1586550866.25,-14.648,34.18,23.438,-6.348,50.293
1586550866.254,72.266,32.715,24.902,31.25,70.312
1586550866.258,97.656,30.762,22.949,58.105,66.895
1586550866.262,-0.488,30.273,20.996,20.996,37.109
1586550866.265,-23.438,31.738,24.902,-4.883,-23.438
1586550866.269,57.617,34.18,23.926,28.32,7.324
1586550866.273,115.723,33.691,24.414,60.547,48.34
1586550866.277,21.973,30.273,27.832,27.832,40.527
1586550866.281,-32.227,33.691,24.902,4.883,29.785
1586550866.285,34.18,34.668,24.902,31.25,-0.488
1586550866.289,110.84,30.273,25.391,64.453,70.801
1586550866.293,65.43,27.832,26.367,51.27,85.449
1586550866.297,-22.949,31.25,28.809,13.672,7.812
1586550866.301,5.371,35.645,26.367,15.625,19.531
1586550866.305,103.027,35.645,24.902,58.105,19.531
1586550866.308,89.355,31.25,28.32,62.012,35.156
1586550866.312,-32.227,27.832,29.297,15.625,65.43
1586550866.316,-28.32,27.344,30.762,12.207,60.059
1586550866.32,62.5,28.32,31.25,53.711,84.961
1586550866.324,99.121,29.297,30.762,72.266,62.5
1586550866.328,6.836,28.809,32.715,25.879,24.414
1586550866.332,-26.855,27.344,27.832,5.371,52.734
1586550866.336,48.828,29.297,23.926,35.156,80.566
1586550866.34,109.375,28.32,27.344,67.871,61.523
1586550866.344,22.949,24.414,31.25,36.133,25.879
1586550866.348,-40.039,24.902,32.227,3.418,10.742
1586550866.351,17.09,27.832,28.809,24.902,55.176
1586550866.355,97.656,30.762,26.855,61.523,53.711
1586550866.359,54.199,29.785,26.855,49.805,26.367
1586550866.363,-36.621,31.25,29.785,9.766,31.738
1586550866.367,-11.719,32.715,31.25,15.625,34.18
1586550866.371,84.473,29.785,27.832,52.734,33.691
1586550866.375,96.68,31.25,27.832,56.152,41.992
1586550866.379,-22.949,29.297,29.297,4.395,31.25
1586550866.383,-34.668,26.367,23.926,-5.859,9.766
1586550866.387,48.34,26.367,24.414,31.25,29.297
1586550866.39,85.449,27.344,28.32,45.41,21.484
1586550866.394,-5.859,28.809,32.227,12.207,-2.93
1586550866.398,-41.504,29.297,35.645,-7.812,-32.227
1586550866.402,29.297,28.32,32.227,10.742,-7.324
1586550866.406,98.633,30.762,28.809,46.875,61.523
1586550866.41,30.762,34.18,30.273,32.227,72.754
1586550866.414,-42.48,30.762,28.32,-4.395,83.984
1586550866.418,9.766,28.809,25.879,7.812,41.016
1586550866.422,99.609,26.367,26.855,49.316,-12.207
1586550866.426,72.754,27.344,27.832,42.48,-31.738
1586550866.43,-24.414,32.715,27.344,-0.977,-17.578
1586550866.433,-0.977,34.18,25.391,4.395,13.672
1586550866.437,84.961,32.715,24.902,43.457,6.836
1586550866.441,88.379,32.715,23.926,54.199,53.223
1586550866.445,-17.09,34.18,23.926,11.719,51.27
1586550866.449,-28.32,36.133,23.438,0,31.738
1586550866.453,58.594,32.715,23.438,31.25,15.137
1586550866.457,105.957,31.738,25.879,52.734,12.695
1586550866.461,5.371,32.227,25.391,25.879,15.625
1586550866.465,-37.109,31.738,24.414,1.953,21.973
1586550866.469,34.668,33.203,25.879,20.508,40.527
1586550866.473,111.816,32.715,26.855,58.105,30.273
1586550866.476,53.223,32.715,26.367,40.039,44.922
1586550866.48,-27.832,34.668,26.855,1.465,56.641
1586550866.484,11.719,35.645,27.344,19.043,74.707
1586550866.488,97.168,33.203,25.879,58.594,36.621
1586550866.492,78.125,30.273,23.438,56.152,33.691
1586550866.496,-24.414,28.32,23.438,17.09,46.875
1586550866.5,-7.812,27.832,26.367,11.23,-12.695
1586550866.504,78.125,27.344,26.367,42.48,-16.113
1586550866.508,97.656,28.32,26.367,57.617,25.879
1586550866.512,-1.953,31.25,27.344,20.02,48.828
1586550866.515,-28.809,33.203,23.926,3.906,63.477
1586550866.519,49.805,32.227,24.414,35.645,11.23
1586550866.523,113.281,31.25,26.367,64.453,-2.93
1586550866.527,29.297,30.762,26.855,30.273,17.578
1586550866.531,-31.738,29.297,27.344,3.906,34.18
1586550866.535,27.344,32.227,22.949,20.02,16.602
1586550866.539,106.934,32.715,20.02,48.34,34.668
1586550866.543,50.293,32.227,25.391,39.551,39.551
1586550866.547,-39.062,30.762,24.902,2.441,16.602
1586550866.551,3.906,26.855,21.484,4.883,9.277
1586550866.555,91.309,28.32,28.32,45.898,12.695
1586550866.558,81.543,29.785,33.691,57.617,45.898
1586550866.562,-23.926,28.32,34.668,14.16,25.879
1586550866.566,-23.438,30.273,34.668,3.418,-38.086
1586550866.57,67.383,29.785,33.691,35.645,12.207
1586550866.574,103.516,29.785,32.227,57.129,52.246
1586550866.578,-1.953,29.785,31.738,13.184,4.883
1586550866.582,-36.133,26.855,30.273,-13.672,10.254
1586550866.586,35.645,29.297,26.855,17.578,19.043
1586550866.59,107.91,31.25,24.414,55.176,-29.785
1586550866.594,36.621,30.762,26.367,32.227,-8.301
1586550866.598,-41.016,26.367,26.855,-4.395,-19.043
1586550866.601,11.719,26.367,22.461,5.859,-9.766
1586550866.605,97.168,26.367,20.508,44.922,41.016
1586550866.609,60.059,26.855,21.484,36.133,-4.395
1586550866.613,-34.668,26.855,22.949,-8.301,-29.297
1586550866.617,-7.812,25.879,21.973,-1.953,29.297
1586550866.621,85.938,28.809,19.043,38.574,42.48
1586550866.625,82.52,28.809,21.973,52.734,32.715
1586550866.629,-27.344,27.344,25.879,11.23,27.832
1586550866.633,-23.438,31.738,21.973,-5.859,13.184
1586550866.637,61.523,36.133,20.508,30.762,35.156
1586550866.64,96.68,35.645,25.879,60.059,45.41
1586550866.644,-2.441,28.32,29.785,21.484,48.828
1586550866.648,-43.945,24.414,30.762,-4.395,76.66
1586550866.652,30.762,30.762,32.715,27.832,41.016
1586550866.656,102.539,30.762,29.785,59.082,15.625
1586550866.66,36.133,28.32,25.879,32.715,30.762
1586550866.664,-39.062,26.855,26.367,5.371,4.883
1586550866.668,5.371,25.879,25.879,13.672,-11.23
1586550866.672,96.68,29.297,23.438,44.922,-4.883
1586550866.676,79.59,34.18,22.461,44.922,-24.414
1586550866.68,-19.043,33.691,26.855,4.395,-4.883
1586550866.683,-1.953,32.715,28.809,5.859,65.918
1586550866.687,81.543,34.18,29.297,37.598,83.008
1586550866.691,94.727,33.203,31.25,52.246,65.918
1586550866.695,-7.812,34.18,29.785,22.949,17.578
1586550866.699,-27.344,29.785,27.832,10.254,59.082
1586550866.703,48.34,28.32,27.344,36.621,55.664
1586550866.707,99.609,31.738,25.879,62.988,29.297
1586550866.711,17.09,29.785,27.344,33.203,41.504
1586550866.715,-30.273,32.715,29.785,3.418,4.883
1586550866.719,33.691,32.227,30.273,28.809,38.086
1586550866.723,107.422,28.32,29.297,66.895,39.551
1586550866.726,57.617,31.738,28.809,44.922,23.926
1586550866.73,-23.438,29.297,28.809,4.395,50.293
1586550866.734,11.23,25.391,28.32,13.672,83.008
1586550866.738,98.145,28.32,30.273,54.199,91.797
1586550866.742,86.426,28.809,30.273,53.223,79.102
1586550866.746,-25.391,30.273,29.297,4.395,52.246
1586550866.75,-20.996,28.809,28.809,0,56.152
1586550866.754,71.777,27.344,29.297,41.992,54.199
1586550866.758,109.375,30.273,28.32,62.012,-20.02
1586550866.762,7.812,32.715,31.738,24.902,-7.324
1586550866.765,-30.273,32.227,32.227,3.418,3.906
1586550866.769,49.316,30.273,30.762,29.785,5.859
1586550866.773,117.188,30.273,31.25,64.941,45.898
1586550866.777,33.691,30.273,28.809,36.621,24.414
1586550866.781,-37.598,27.344,29.297,-2.93,-9.277
1586550866.785,22.949,20.508,29.785,24.414,-50.293
1586550866.789,109.863,22.949,24.414,64.941,2.441
1586550866.793,63.965,36.133,21.484,40.527,2.441
1586550866.797,-28.32,43.457,17.578,-8.789,-0.977
1586550866.801,-1.465,41.992,15.625,-4.395,12.695
1586550866.805,88.379,41.504,14.648,39.551,-10.254
1586550866.808,89.844,49.316,12.695,41.992,10.742
1586550866.812,-14.648,49.316,13.672,2.441,14.648
1586550866.816,-23.926,47.852,14.16,-8.789,57.129
1586550866.82,61.523,46.387,14.648,18.066,39.062
1586550866.824,110.352,43.945,12.695,48.828,53.711
1586550866.828,6.836,46.875,14.16,13.184,94.238
1586550866.832,-32.227,44.922,14.16,-12.207,48.828
1586550866.836,37.109,42.48,12.695,17.09,22.461
1586550866.84,99.609,41.016,14.16,52.734,27.832
1586550866.844,30.273,39.551,16.602,29.297,49.316
1586550866.848,-37.109,40.039,16.602,-3.906,29.297
1586550866.851,15.625,38.574,17.578,8.789,-7.812
1586550866.855,100.586,38.086,17.578,50.781,72.266
1586550866.859,69.824,41.504,17.09,47.363,97.656
1586550866.863,-30.762,41.016,18.066,6.348,29.785
1586550866.867,-14.16,41.016,18.555,6.836,71.777
1586550866.871,79.102,40.527,18.066,43.945,45.898
1586550866.875,95.215,38.086,17.578,55.664,-29.785
1586550866.879,-15.137,37.109,16.602,14.648,-51.758
1586550866.883,-29.297,38.086,15.625,2.93,13.672
1586550866.887,59.57,38.086,17.09,36.621,78.613
1586550866.89,108.398,36.133,19.043,56.641,12.207
1586550866.894,10.254,34.668,15.137,19.531,33.691
1586550866.898,-30.273,36.133,14.16,1.465,85.938
1586550866.902,34.18,36.621,16.602,22.461,42.969
1586550866.906,104.98,34.668,17.578,56.641,62.012
1586550866.91,42.969,37.109,20.02,37.598,73.73
1586550866.914,-43.457,39.551,20.996,-0.977,35.645
1586550866.918,5.371,31.25,22.461,14.648,82.52
1586550866.922,99.609,28.32,21.973,51.27,59.082
1586550866.926,75.195,35.645,22.949,48.34,45.898
1586550866.93,-29.297,36.133,23.438,6.836,66.406
1586550866.933,-9.277,34.668,21.973,10.254,57.129
1586550866.937,78.125,35.156,21.973,47.363,38.574
1586550866.941,97.656,33.691,22.949,61.523,4.395
1586550866.945,-0.488,32.227,21.484,24.414,-6.348
1586550866.949,-18.555,31.738,21.973,3.906,-35.156
1586550866.953,61.523,33.203,25.879,33.691,-13.672
1586550866.957,114.258,35.156,26.367,62.012,7.812
1586550866.961,26.367,34.668,28.32,32.715,16.113
1586550866.965,-29.785,32.715,27.832,5.371,-39.551
1586550866.969,28.32,29.785,26.367,24.414,-3.906
1586550866.973,107.91,29.297,27.832,67.871,82.031
1586550866.976,61.523,33.691,30.273,53.711,104.004
1586550866.98,-28.809,33.691,31.738,11.23,132.812
1586550866.984,13.672,31.25,29.785,13.672,82.031
1586550866.988,103.516,33.203,25.879,54.199,73.73
1586550866.992,91.309,32.227,26.855,65.43,55.176
1586550866.996,-12.695,32.715,27.832,22.949,40.527
1586550867,-10.254,33.203,27.832,16.113,14.648
1586550867.004,74.219,33.203,25.391,48.34,-15.137
1586550867.008,108.398,32.227,24.414,62.988,30.762
1586550867.012,13.184,31.25,26.855,23.926,24.414
1586550867.015,-20.996,30.273,24.902,5.859,-6.348
1586550867.019,46.875,32.227,23.926,30.762,56.152
1586550867.023,109.863,31.738,22.461,65.43,55.664
1586550867.027,33.691,30.762,24.414,41.504,-15.625
1586550867.031,-40.039,30.762,26.855,8.789,-21.973
1586550867.035,18.555,27.832,25.391,25.879,29.297
1586550867.039,103.516,28.32,26.855,60.547,94.727
1586550867.043,54.199,30.273,26.855,44.434,54.688
1586550867.047,-40.039,29.785,26.855,-0.977,27.344
1586550867.051,-6.836,28.809,25.391,10.742,30.273
1586550867.055,80.078,27.832,22.461,47.852,37.109
1586550867.058,84.961,29.297,24.902,51.27,23.926
1586550867.062,-12.695,32.227,23.438,13.184,-31.738
1586550867.066,-20.02,27.832,23.926,2.441,25.391
1586550867.07,63.965,29.785,25.879,37.109,42.48
1586550867.074,107.422,34.668,26.367,56.641,5.859
1586550867.078,7.324,31.738,29.297,18.555,-20.996
1586550867.082,-41.016,28.809,26.855,-4.883,12.695
1586550867.086,27.832,30.273,27.832,15.625,39.062
1586550867.09,104.492,33.203,30.273,53.223,13.184
1586550867.094,34.668,31.738,25.391,31.738,-13.672
1586550867.098,-42.48,30.762,23.438,-5.371,-42.48
1586550867.101,11.23,30.273,26.855,14.16,-23.926
1586550867.105,95.215,29.785,26.367,51.758,16.113
1586550867.109,62.5,28.809,24.414,44.434,-10.742
1586550867.113,-33.203,26.367,25.391,7.324,-41.016
1586550867.117,-11.719,26.855,25.391,7.324,-13.672
1586550867.121,70.801,28.32,24.902,47.363,81.543
1586550867.125,85.449,24.902,28.32,58.594,86.914
1586550867.129,-7.324,24.414,30.273,12.207,6.348
1586550867.133,-22.949,24.902,30.273,1.953,53.223
1586550867.137,50.293,22.461,32.227,35.156,89.844
1586550867.14,95.703,22.949,29.297,54.688,63.965
1586550867.144,4.883,21.973,25.391,20.996,76.66
1586550867.148,-42.969,21.484,23.926,-2.441,11.719
1586550867.152,24.902,23.438,24.414,18.555,-44.434
1586550867.156,104.98,24.414,24.902,55.176,8.301
1586550867.16,49.805,27.344,24.902,40.039,31.738
1586550867.164,-34.668,28.809,24.902,2.93,21.973
1586550867.168,3.906,29.785,25.391,16.113,0.488
1586550867.172,83.984,29.297,25.391,52.246,11.719
1586550867.176,73.242,29.297,26.367,52.246,-53.711
1586550867.18,-21.484,28.809,27.344,9.766,-56.152
1586550867.183,-11.23,30.762,23.438,-1.465,45.41
1586550867.187,80.078,33.203,23.438,37.598,50.781
1586550867.191,107.91,33.203,25.391,59.082,21.484
1586550867.195,7.324,34.668,24.902,18.066,42.48
1586550867.199,-15.625,34.668,24.414,3.906,45.41
1586550867.203,57.129,34.18,24.902,34.18,36.133
1586550867.207,116.211,31.738,27.832,62.988,73.73
1586550867.211,37.598,32.227,28.809,38.086,71.777
1586550867.215,-26.855,30.273,27.832,10.742,52.734
1586550867.219,32.227,29.297,27.344,28.32,79.59
1586550867.223,122.07,35.645,25.879,64.941,54.199
1586550867.226,74.707,35.156,29.785,54.688,34.18
1586550867.23,-25.391,36.621,32.227,14.16,98.145
1586550867.234,5.859,40.527,26.855,17.578,78.125
1586550867.238,100.098,35.156,25.391,57.617,65.918
1586550867.242,89.844,30.762,27.832,56.152,95.703
1586550867.246,-24.414,34.18,28.809,12.695,77.637
1586550867.25,-22.461,33.203,26.855,9.766,25.879
1586550867.254,66.895,32.227,27.344,39.062,17.09
1586550867.258,105.469,33.691,30.762,60.059,18.555
1586550867.262,4.395,32.715,30.762,22.949,12.695
1586550867.265,-38.086,33.691,29.297,-7.812,53.223
1586550867.269,37.109,33.691,26.855,21.484,5.371
1586550867.273,110.352,34.18,25.391,59.57,-14.648
1586550867.277,37.598,34.668,26.367,35.156,-9.766
1586550867.281,-44.434,31.25,31.738,-0.977,24.414
1586550867.285,5.371,33.203,30.273,10.254,73.73
1586550867.289,93.75,33.691,29.785,51.758,48.828
1586550867.293,60.547,30.762,30.762,44.922,17.09
1586550867.297,-36.133,28.809,29.785,4.883,-40.527
1586550867.301,-13.184,28.32,32.227,6.836,5.371
1586550867.305,78.125,29.297,32.715,43.945,34.668
1586550867.308,84.961,30.273,34.668,59.082,18.066
1586550867.312,-20.996,28.809,33.691,13.672,32.227
1586550867.316,-26.367,25.879,33.691,1.465,65.43
1586550867.32,53.711,25.391,31.738,34.668,61.523
1586550867.324,97.168,28.32,28.32,53.223,81.055
1586550867.328,10.742,26.367,30.762,24.902,88.379
1586550867.332,-36.133,25.879,31.738,-1.465,10.254
1586550867.336,29.297,28.32,27.344,19.043,-23.926
1586550867.34,108.398,28.32,21.973,56.641,79.102
1586550867.344,49.316,31.25,27.832,38.574,95.703
1586550867.348,-32.227,30.762,33.203,0.977,-5.859
1586550867.351,8.301,29.785,31.25,10.742,14.648
1586550867.355,92.285,29.785,28.32,54.688,96.68
1586550867.359,68.848,23.926,26.367,56.641,75.195
1586550867.363,-32.227,24.902,29.297,11.719,91.309
1586550867.367,-11.719,31.738,28.809,5.371,57.129
1586550867.371,82.52,34.668,26.855,40.527,8.789
1586550867.375,102.051,35.645,28.809,53.223,-25.879
1586550867.379,-1.465,34.18,29.297,13.672,-19.043
1586550867.383,-18.555,32.715,29.297,2.441,23.438
1586550867.387,62.988,31.738,30.273,33.691,34.18
1586550867.39,119.141,32.715,32.715,65.43,24.414
1586550867.394,25.391,34.668,34.18,33.691,0
1586550867.398,-36.133,34.18,33.691,3.906,-15.137
1586550867.402,29.785,33.691,34.18,28.809,53.711
1586550867.406,108.398,32.715,34.18,64.941,72.266
1586550867.41,56.641,33.691,31.738,47.852,20.996
1586550867.414,-31.25,33.691,26.855,9.277,-5.371
1586550867.418,-0.977,32.715,27.344,17.578,-28.32
1586550867.422,84.473,30.762,30.273,51.27,-0.488
1586550867.426,79.59,28.809,31.25,50.293,10.742
1586550867.43,-23.438,31.25,28.32,5.371,-23.438
1586550867.433,-23.438,31.738,28.809,-4.395,-37.598
1586550867.437,67.383,28.809,28.809,33.203,-10.742
1586550867.441,103.027,31.738,28.809,61.035,47.363
1586550867.445,3.418,34.18,30.273,24.414,39.551
1586550867.449,-27.832,31.738,28.32,2.93,48.34
1586550867.453,45.898,32.715,27.832,32.715,22.949
1586550867.457,114.258,35.156,27.832,63.965,22.949
1586550867.461,34.18,35.645,27.832,36.621,72.754
1586550867.465,-33.691,36.621,27.832,5.371,8.301
1586550867.469,25.391,33.691,27.344,23.926,-20.996
1586550867.473,107.91,32.715,27.344,62.5,29.297
1586550867.476,68.848,37.109,27.344,54.688,43.457
1586550867.48,-21.973,37.598,25.879,11.23,41.016
1586550867.484,1.465,32.227,27.344,11.719,45.898
1586550867.488,85.938,30.273,27.832,50.781,54.199
1586550867.492,85.938,32.715,26.367,57.617,44.922
1586550867.496,-22.461,30.762,28.809,14.648,7.324
1586550867.5,-24.902,28.32,30.762,7.812,79.59
1586550867.504,66.406,31.25,29.785,41.504,97.656
1586550867.508,108.398,30.762,29.297,59.57,57.617
1586550867.512,12.695,31.738,29.785,24.414,68.359
1586550867.515,-29.785,31.738,29.785,4.395,-4.395
1586550867.519,36.621,29.785,29.785,29.297,38.574
1586550867.523,109.863,31.25,28.809,64.453,68.359
1586550867.527,45.41,31.25,27.832,40.527,-9.766
1586550867.531,-36.133,29.297,27.344,0.488,5.371
1586550867.535,13.184,27.832,27.832,16.602,32.227
1586550867.539,106.445,28.809,27.344,55.176,14.648
1586550867.543,71.777,33.203,26.367,48.828,-6.348
1586550867.547,-27.832,31.25,28.32,8.789,8.301
1586550867.551,-0.488,31.25,28.809,13.672,38.574
1586550867.555,90.332,32.715,25.879,51.758,13.672
1586550867.558,104.492,31.738,25.391,59.082,17.578
1586550867.562,5.371,32.227,26.367,22.461,43.945
1586550867.566,-6.348,32.227,28.32,15.625,57.129
1586550867.57,61.523,25.879,33.203,40.039,39.551
1586550867.574,102.051,22.949,35.645,59.082,4.883
1586550867.578,10.254,25.391,35.156,29.297,-0.977
1586550867.582,-36.133,26.367,36.133,-0.488,42.969
1586550867.586,29.297,28.32,35.645,16.602,40.039
1586550867.59,104.492,29.297,36.133,59.082,-14.16
1586550867.594,56.641,30.762,35.645,48.828,-29.297
1586550867.598,-22.461,31.738,32.227,10.254,-38.086
1586550867.601,18.066,31.738,31.738,19.043,-23.926
1586550867.605,106.445,32.715,33.691,56.641,-26.367
1586550867.609,87.402,32.227,32.715,55.176,9.766
1586550867.613,-17.578,30.762,31.738,14.648,29.785
1586550867.617,-11.23,29.785,28.32,8.789,55.176
1586550867.621,82.52,29.785,25.391,41.992,19.043
1586550867.625,106.445,32.227,25.879,53.223,-12.207
1586550867.629,-0.977,32.715,27.344,11.23,5.859
1586550867.633,-28.32,31.25,29.297,-2.441,1.465
1586550867.637,46.387,33.203,29.297,27.832,26.855
1586550867.64,103.516,33.203,29.297,59.082,37.109
1586550867.644,13.672,29.297,30.273,33.203,50.293
1586550867.648,-45.41,29.297,33.691,4.395,35.156
1586550867.652,24.902,33.691,32.715,24.414,0
1586550867.656,107.91,33.203,30.762,60.059,10.254
1586550867.66,57.129,28.809,33.203,41.504,43.945
1586550867.664,-34.18,30.273,32.227,2.441,63.965
1586550867.668,3.418,33.203,30.762,17.09,50.781
1586550867.672,93.75,29.785,30.762,60.547,40.527
1586550867.676,83.984,27.344,32.715,61.035,36.621
1586550867.68,-21.484,28.32,33.691,16.602,2.441
1586550867.683,-20.996,28.32,32.227,11.23,26.855
1586550867.687,68.359,28.809,31.738,46.387,67.871
1586550867.691,104.98,29.297,28.809,68.848,57.129
1586550867.695,-0.488,28.32,26.855,30.762,50.293
1586550867.699,-36.133,28.32,29.297,6.836,57.617
1586550867.703,43.945,29.785,29.785,34.668,70.312
1586550867.707,113.281,29.785,29.297,66.406,97.168
1586550867.711,39.551,30.762,29.785,39.551,84.473
1586550867.715,-30.762,29.785,28.809,1.465,56.152
1586550867.719,20.508,30.762,27.344,12.695,71.777
1586550867.723,104.492,31.25,27.832,56.152,50.781
1586550867.726,69.824,31.738,30.762,59.57,31.25
1586550867.73,-19.531,30.762,29.785,16.113,16.602
1586550867.734,-0.977,28.809,27.832,15.625,31.738
1586550867.738,83.008,32.715,26.855,50.781,5.859
1586550867.742,96.68,36.621,28.809,53.711,33.203
1586550867.746,-7.324,36.621,32.715,11.719,52.246
1586550867.75,-19.043,34.18,32.715,-1.465,-39.062
1586550867.754,60.547,31.25,29.297,33.203,15.625
1586550867.758,106.934,31.25,28.809,59.082,56.641
1586550867.762,15.625,31.738,30.273,23.438,32.715
1586550867.765,-28.809,29.785,30.273,-0.977,2.93
1586550867.769,37.598,29.785,31.25,21.973,20.508
1586550867.773,102.539,29.785,30.273,58.105,55.664
1586550867.777,36.621,31.25,29.785,39.062,62.012
1586550867.781,-38.574,33.203,29.785,1.953,34.668
1586550867.785,12.695,32.227,29.785,13.184,-44.922
1586550867.789,104.004,29.785,27.832,51.27,-15.625
1586550867.793,76.172,29.785,28.809,46.875,7.812
1586550867.797,-24.414,29.785,30.762,7.324,21.973
1586550867.801,-3.418,26.855,33.203,11.23,8.789
1586550867.805,85.938,25.391,37.109,51.758,13.672
1586550867.808,100.098,26.367,35.156,64.941,64.453
1586550867.812,-1.465,27.832,32.715,19.043,68.848
1586550867.816,-20.508,28.32,34.18,6.348,67.383
1586550867.82,57.617,29.785,34.18,41.016,7.812
1586550867.824,109.863,30.273,31.25,65.918,-7.324
1586550867.828,23.926,31.738,29.297,29.297,34.18
1586550867.832,-26.855,33.691,30.273,1.953,15.137
1586550867.836,36.133,35.156,28.809,32.227,-20.996
1586550867.84,110.352,35.645,30.762,69.824,26.367
1586550867.844,51.27,34.668,33.203,53.223,44.434
1586550867.848,-36.133,36.621,31.25,8.301,14.16
1586550867.851,6.836,35.156,31.738,13.184,15.625
1586550867.855,99.121,33.203,30.762,52.734,12.207
1586550867.859,89.355,31.25,29.785,52.734,-8.789
1586550867.863,-11.719,31.25,32.227,7.812,-41.016
1586550867.867,-11.23,32.227,31.25,2.441,-76.172
1586550867.871,67.383,28.32,28.32,36.133,-37.598
1586550867.875,98.633,28.809,31.25,55.176,50.781
1586550867.879,-3.418,31.25,30.273,15.625,49.805
1586550867.883,-28.809,30.762,27.832,-3.418,2.93
1586550867.887,47.363,33.203,27.832,28.809,2.441
1586550867.89,108.887,32.715,26.855,57.129,34.668
1586550867.894,30.273,29.785,27.832,28.809,41.504
1586550867.898,-38.086,29.785,26.855,-3.906,-21.484
1586550867.902,20.02,29.297,28.32,15.625,-15.625
1586550867.906,101.074,27.832,28.809,55.176,58.105
1586550867.91,57.617,30.273,28.809,48.828,58.105
1586550867.914,-33.203,31.738,28.32,11.23,28.32
1586550867.918,-0.977,32.715,27.832,15.625,-3.418
1586550867.922,88.379,32.715,29.785,48.828,-14.16
1586550867.926,91.309,33.691,30.273,56.152,36.621
1586550867.93,-15.137,30.273,29.297,16.602,70.312
1586550867.933,-17.578,28.809,25.879,1.953,26.367
1586550867.937,66.895,28.809,26.367,36.133,21.484
1586550867.941,104.492,27.344,27.344,57.129,26.855
1586550867.945,7.812,29.297,27.344,13.672,8.301
1586550867.949,-32.715,31.25,26.855,-9.277,41.016
1586550867.953,34.668,29.785,25.879,19.531,9.766
1586550867.957,102.051,27.344,27.344,58.105,3.906
1586550867.961,29.297,27.832,27.832,38.086,18.066
1586550867.965,-41.016,28.32,28.32,4.883,65.918
1586550867.969,11.23,27.344,28.809,20.02,60.547
1586550867.973,98.633,30.762,27.832,61.523,102.051
1586550867.976,66.895,33.203,30.273,55.664,141.113
1586550867.98,-35.645,32.227,34.18,9.277,33.203
1586550867.984,-9.766,29.785,31.738,12.695,15.137
1586550867.988,79.59,28.32,28.809,50.293,75.684
1586550867.992,92.773,28.809,27.832,60.059,53.711
1586550867.996,-7.324,29.785,27.832,14.648,0
1586550868,-28.809,30.762,24.414,-4.395,-15.625
1586550868.004,45.41,32.715,22.949,24.414,21.973
1586550868.008,100.586,34.18,26.367,51.758,60.547
1586550868.012,8.301,32.227,31.25,21.484,29.297
1586550868.015,-50.781,31.738,31.738,-6.348,6.348
1586550868.019,23.438,30.762,28.32,14.648,-5.371
1586550868.023,102.051,28.809,27.832,53.711,-11.719
1586550868.027,34.18,29.785,30.762,35.156,-25.391
1586550868.031,-42.48,29.785,32.227,0,-51.27
1586550868.035,3.418,31.25,33.203,16.602,35.156
1586550868.039,88.867,30.273,33.203,53.711,91.797
1586550868.043,69.336,28.32,31.25,49.316,8.301
1586550868.047,-33.691,27.832,30.273,10.254,-41.016
1586550868.051,-29.785,23.926,33.203,13.672,40.039
1586550868.055,63.965,25.879,34.18,47.852,39.062
1586550868.058,92.773,31.738,31.738,57.129,32.227
1586550868.062,-10.254,29.785,30.762,16.602,12.207
1586550868.066,-27.832,28.32,29.297,2.441,-20.02
1586550868.07,54.199,31.25,26.855,31.738,38.574
1586550868.074,114.258,30.273,29.297,62.988,42.969
1586550868.078,26.367,31.25,28.809,34.18,41.016
1586550868.082,-37.598,31.25,27.832,4.883,48.34
1586550868.086,23.926,31.738,31.738,26.855,5.859
1586550868.09,111.328,34.18,31.25,62.5,16.602
1586550868.094,61.035,30.762,33.203,47.852,66.895
1586550868.098,-28.32,29.297,34.668,8.789,11.23
1586550868.101,10.742,29.297,29.785,19.043,-2.93
1586550868.105,96.191,29.297,29.297,62.012,18.066
1586550868.109,83.008,30.273,31.25,60.547,68.359
1586550868.113,-20.508,30.762,28.32,15.625,79.59
1586550868.117,-16.602,31.25,26.855,11.719,25.879
1586550868.121,68.848,31.738,25.391,44.922,54.199
1586550868.125,106.445,30.762,25.879,64.453,103.027
1586550868.129,7.324,31.25,26.855,26.367,22.461
1586550868.133,-29.297,33.691,24.902,5.371,3.906
1586550868.137,44.922,31.738,23.438,27.344,89.844
1586550868.14,109.375,26.855,22.461,59.57,71.289
1586550868.144,34.18,28.809,24.414,39.551,13.184
1586550868.148,-33.691,29.785,27.344,8.301,31.25
1586550868.152,13.184,25.879,24.414,24.902,43.457
1586550868.156,92.773,27.344,20.996,56.152,27.832
1586550868.16,61.523,25.391,24.414,45.41,41.992
1586550868.164,-24.902,25.391,23.926,8.301,34.18
1586550868.168,4.883,33.203,20.02,12.695,28.809
1586550868.172,84.473,30.762,22.949,47.363,52.734
1586550868.176,78.125,27.344,30.762,46.875,82.52
1586550868.18,-25.391,26.855,30.273,1.953,39.062
1586550868.183,-27.832,26.855,28.809,-9.766,-32.227
1586550868.187,52.734,28.32,32.227,28.32,16.602
1586550868.191,94.727,29.785,30.273,59.082,62.988
1586550868.195,2.93,29.297,31.25,21.973,36.133
1586550868.199,-44.922,26.367,31.25,-5.371,23.438
1586550868.203,24.414,27.344,29.785,13.672,48.828
1586550868.207,98.633,28.32,32.227,44.922,52.734
1586550868.211,30.273,26.367,34.18,23.438,26.367
1586550868.215,-49.316,24.414,33.203,-9.277,0.488
1586550868.219,-0.488,23.926,33.203,8.301,20.02
1586550868.223,90.82,25.879,31.25,46.387,-3.906
1586550868.226,67.871,29.297,32.227,46.875,0
1586550868.23,-32.227,27.832,31.25,6.348,1.465
1586550868.234,-13.672,27.344,26.367,5.859,-19.043
1586550868.238,75.195,28.32,28.32,44.922,71.289
1586550868.242,92.285,30.273,28.32,54.688,86.426
1586550868.246,-10.742,31.738,28.32,12.695,-5.859
1586550868.25,-36.621,30.273,28.809,-8.789,-9.766
1586550868.254,42.48,30.273,26.855,20.508,53.711
1586550868.258,100.098,30.273,27.344,55.664,23.926
1586550868.262,21.484,30.762,30.273,26.855,43.945
1586550868.265,-25.879,32.227,28.809,-3.418,47.363
1586550868.269,29.785,31.25,27.344,13.672,14.16
1586550868.273,104.98,31.25,25.879,51.758,38.574
1586550868.277,45.898,33.203,25.391,32.715,31.25
1586550868.281,-34.668,32.715,28.32,-9.766,-7.812
1586550868.285,9.277,32.227,31.25,5.371,-5.859
1586550868.289,91.309,31.738,30.273,45.898,70.312
1586550868.293,82.031,30.273,30.762,49.805,78.125
1586550868.297,-17.578,31.738,30.762,4.395,27.832
1586550868.301,-14.648,31.25,28.32,-3.418,1.953
1586550868.305,70.312,29.297,25.391,36.621,-33.691
1586550868.308,96.68,28.809,25.879,59.57,-6.836
1586550868.312,-5.371,29.297,31.738,20.02,77.148
1586550868.316,-27.832,31.25,31.738,2.441,52.246
1586550868.32,53.223,29.297,30.762,37.109,19.531
1586550868.324,112.793,29.785,32.227,69.336,33.203
1586550868.328,28.809,30.273,31.25,36.133,11.23
1586550868.332,-38.574,27.832,30.762,3.418,33.203
1586550868.336,16.113,26.367,33.203,21.484,-10.742
1586550868.34,102.539,26.367,35.156,62.012,22.461
1586550868.344,63.965,28.809,33.691,48.34,10.254
1586550868.348,-27.832,26.855,32.227,2.441,5.371
1586550868.351,0.488,26.367,29.785,5.859,120.605
1586550868.355,88.867,27.832,27.344,40.527,95.703
1586550868.359,90.332,28.32,28.32,52.246,55.664
1586550868.363,-10.254,29.297,26.367,6.836,17.09
1586550868.367,-17.578,26.855,24.414,-8.789,-3.418
1586550868.371,64.453,27.344,24.902,23.926,54.688
1586550868.375,105.957,32.715,25.391,49.316,40.527
1586550868.379,3.418,32.715,25.879,18.066,1.465
1586550868.383,-34.668,31.738,24.414,0.488,2.93
1586550868.387,43.945,32.227,22.949,31.738,-14.16
1586550868.39,105.957,27.344,23.438,59.57,7.812
1586550868.394,32.227,28.809,25.879,28.32,21.484
1586550868.398,-35.156,33.203,25.879,0,5.859
1586550868.402,13.184,32.715,26.855,14.16,-52.734
1586550868.406,102.051,35.156,28.809,49.316,-9.766
1586550868.41,68.359,35.156,28.32,43.945,-7.324
1586550868.414,-33.203,32.227,27.832,3.906,35.156
1586550868.418,-9.277,31.25,26.855,11.719,88.379
1586550868.422,77.637,31.25,26.855,43.457,38.086
1586550868.426,85.938,32.715,26.367,55.664,43.457
1586550868.43,-18.066,32.715,28.809,16.113,-0.488
1586550868.433,-23.438,35.156,31.738,-5.371,-65.918
1586550868.437,64.941,37.598,31.25,28.32,-67.383
1586550868.441,108.887,36.133,26.855,62.012,-4.883
1586550868.445,10.254,34.18,25.391,31.25,21.484
1586550868.449,-39.551,32.715,29.785,2.93,47.852
1586550868.453,29.785,32.227,31.738,25.391,64.453
1586550868.457,107.91,30.762,30.762,63.477,44.922
1586550868.461,45.898,31.738,33.691,45.41,11.23
1586550868.465,-39.551,30.762,35.645,7.324,30.762
1586550868.469,4.395,29.297,32.715,17.09,41.016
1586550868.473,90.82,29.297,30.762,49.805,24.902
1586550868.476,69.336,29.297,27.832,47.363,24.414
1586550868.48,-36.621,29.785,29.785,9.277,33.203
1586550868.484,-19.531,27.832,32.715,12.695,45.898
1586550868.488,76.66,30.273,29.785,50.293,50.293
1586550868.492,102.051,30.273,28.809,67.383,-5.859
1586550868.496,3.906,25.391,29.785,28.809,-7.324
1586550868.5,-25.391,27.344,32.227,8.301,39.551
1586550868.504,48.828,28.809,32.715,36.621,16.113
1586550868.508,106.445,28.32,28.809,68.359,31.25
1586550868.512,19.531,33.203,28.809,37.598,29.785
1586550868.515,-38.086,34.18,29.785,4.883,13.184
1586550868.519,24.902,32.715,29.785,30.762,30.273
1586550868.523,97.656,32.715,28.809,70.312,47.852
1586550868.527,45.41,31.738,27.832,48.828,11.719
1586550868.531,-38.086,28.809,32.715,5.859,0.488
1586550868.535,-0.977,28.32,32.715,8.789,-2.441
1586550868.539,83.008,29.785,31.25,51.27,41.504
1586550868.543,73.242,28.809,29.785,54.688,63.965
1586550868.547,-24.902,26.855,27.344,5.371,31.25
1586550868.551,-24.414,26.855,28.809,0.977,62.012
1586550868.555,61.523,27.832,29.785,40.527,53.711
1586550868.558,97.168,29.785,28.809,58.594,86.914
1586550868.562,-2.93,30.762,30.762,17.09,102.051
1586550868.566,-35.156,27.832,30.273,-4.883,54.688
1586550868.57,38.574,30.273,24.902,27.344,65.918
1586550868.574,97.656,28.809,24.902,56.152,117.676
1586550868.578,20.508,27.832,30.273,24.414,77.148
1586550868.582,-39.551,30.273,27.344,0.488,45.898
1586550868.586,10.254,27.344,25.879,20.996,57.617
1586550868.59,95.215,26.855,27.344,56.641,9.277
1586550868.594,63.477,30.273,28.32,44.434,38.574
1586550868.598,-33.203,29.785,27.344,0,74.219
1586550868.601,-4.883,29.297,24.902,3.418,72.754
1586550868.605,83.008,31.738,23.926,41.992,48.34
1586550868.609,88.379,33.203,24.414,53.223,30.273
1586550868.613,-8.789,35.156,24.414,12.207,38.086
1586550868.617,-22.949,34.18,22.949,0.977,10.742
1586550868.621,62.5,31.738,21.484,36.621,-30.273
1586550868.625,111.328,31.738,23.926,59.57,30.273
1586550868.629,11.719,36.621,23.438,19.043,74.707
1586550868.633,-32.715,35.645,22.949,-4.883,34.18
1586550868.637,29.297,29.785,23.438,20.508,-35.156
1586550868.64,102.539,31.738,20.996,53.223,-0.488
1586550868.644,42.48,32.715,25.879,36.621,71.289
1586550868.648,-29.297,33.691,32.715,5.859,54.199
1586550868.652,25.391,33.203,28.809,25.391,36.133
1586550868.656,100.586,27.344,27.832,63.477,20.996
1586550868.66,64.453,29.297,30.273,42.48,2.93
1586550868.664,-29.785,33.203,26.855,-5.371,-13.184
1586550868.668,-17.578,30.762,30.273,2.441,-30.762
1586550868.672,66.895,33.203,30.273,45.898,36.621
1586550868.676,83.984,35.156,28.32,56.152,85.938
1586550868.68,-17.09,31.25,31.738,16.113,53.711
1586550868.683,-28.32,27.832,32.227,8.789,30.273
1586550868.687,61.523,29.785,28.809,37.598,41.016
1586550868.691,120.117,31.25,29.785,66.406,57.129
1586550868.695,22.461,30.273,33.691,31.25,44.922
1586550868.699,-39.062,29.297,33.691,2.441,3.906
1586550868.703,19.043,26.855,32.227,28.809,36.621
1586550868.707,96.68,28.32,28.809,58.594,69.824
1586550868.711,47.852,29.785,29.785,39.062,4.883
1586550868.715,-32.227,29.297,29.785,-0.488,-64.453
1586550868.719,6.348,28.809,25.879,7.812,4.395
1586550868.723,95.703,29.785,29.297,51.27,95.215
1586550868.726,78.613,30.762,32.227,54.688,77.148
1586550868.73,-30.762,29.297,28.809,5.859,29.297
1586550868.734,-18.555,31.25,24.902,0.488,52.734
1586550868.738,72.754,32.715,22.949,35.645,25.391
1586550868.742,98.145,31.738,24.414,55.176,73.242
1586550868.746,-3.906,33.203,26.855,27.832,109.375
1586550868.75,-29.297,34.668,27.344,10.742,23.926
1586550868.754,52.734,31.25,26.367,31.25,-2.93
1586550868.758,116.699,31.25,27.344,62.012,31.25
1586550868.762,41.992,32.227,30.762,35.645,42.48
1586550868.765,-24.902,32.227,30.273,0.977,-1.465
1586550868.769,20.996,34.668,27.832,19.531,-42.48
1586550868.773,103.516,33.203,29.785,59.082,-12.207
1586550868.777,67.383,29.785,30.762,41.016,42.969
1586550868.781,-20.996,30.273,30.762,-1.465,27.344
1586550868.785,3.418,33.203,27.832,7.324,27.344
1586550868.789,89.844,32.715,29.297,50.293,44.922
1586550868.793,87.891,31.738,28.809,57.129,49.316
1586550868.797,-15.137,31.738,27.344,8.789,15.625
1586550868.801,-15.137,32.715,28.809,2.441,-9.766
1586550868.805,67.871,34.668,26.367,45.41,36.133
1586550868.808,102.539,34.668,28.32,67.383,61.035
1586550868.812,3.906,35.156,30.762,24.414,29.785
1586550868.816,-31.738,36.621,31.25,0.977,-4.883
1586550868.82,42.48,35.156,33.203,27.344,44.434
1586550868.824,111.328,35.156,30.273,62.5,82.52
1586550868.828,35.645,35.645,30.762,33.203,20.02
1586550868.832,-43.945,30.762,30.273,-9.766,23.926
1586550868.836,2.441,28.32,27.344,10.254,73.242
1586550868.84,87.891,32.715,27.832,55.664,73.242
1586550868.844,62.5,30.273,27.832,48.34,-15.137
1586550868.848,-31.738,26.855,28.32,8.301,-6.836
1586550868.851,-7.324,31.25,29.297,11.23,60.547
1586550868.855,76.172,31.25,29.297,51.758,29.785
1586550868.859,76.66,34.18,28.32,56.641,43.945
1586550868.863,-24.902,35.645,27.832,10.254,41.504
1586550868.867,-27.344,30.762,30.762,3.418,31.738
1586550868.871,62.988,29.785,26.855,36.133,45.41
1586550868.875,111.328,32.715,23.438,59.082,62.5
1586550868.879,7.324,31.25,24.902,20.02,30.273
1586550868.883,-37.598,27.344,26.367,-0.488,-7.324
1586550868.887,32.715,25.879,26.367,25.391,-32.715
1586550868.89,101.562,29.297,28.809,58.594,-11.719
1586550868.894,40.039,28.809,29.297,39.551,-0.488
1586550868.898,-43.457,28.32,25.879,-5.371,-35.645
1586550868.902,4.883,31.25,28.32,11.719,9.277
1586550868.906,98.633,30.273,28.809,60.059,66.895
1586550868.91,79.59,31.25,29.297,53.223,41.016
1586550868.914,-23.926,32.715,30.273,7.324,-13.184
1586550868.918,-16.602,31.25,27.344,8.301,41.992
1586550868.922,74.707,31.25,27.344,44.922,64.941
1586550868.926,95.703,29.785,28.809,60.547,61.523
1586550868.93,-13.672,31.25,28.809,20.508,34.668
1586550868.933,-36.133,33.691,26.367,3.906,-27.832
1586550868.937,49.805,34.668,27.344,37.109,-5.371
1586550868.941,101.562,35.156,28.32,67.383,33.203
1586550868.945,21.484,36.133,32.227,37.598,51.27
1586550868.949,-28.809,33.691,33.691,8.789,2.441
1586550868.953,26.855,32.227,30.762,26.855,-15.137
1586550868.957,103.516,31.738,29.297,61.523,60.059
1586550868.961,53.223,30.273,27.832,47.852,89.844
1586550868.965,-28.809,25.879,29.785,12.695,73.242
1586550868.969,12.207,29.785,28.809,18.066,45.898
1586550868.973,90.332,39.551,23.438,42.969,42.969
1586550868.976,81.543,38.086,23.438,44.922,41.504
1586550868.98,-16.113,34.668,25.391,0.488,0
1586550868.984,-13.672,34.668,24.902,-13.184,-6.836
1586550868.988,72.754,33.203,24.414,26.367,71.289
1586550868.992,104.492,32.227,26.367,54.199,56.641
1586550868.996,0.977,32.227,24.902,21.973,-24.902
1586550869,-30.762,33.203,20.996,2.93,-40.039
1586550869.004,44.922,34.668,22.461,27.832,9.766
1586550869.008,103.027,31.25,24.902,46.387,-13.184
1586550869.012,20.02,29.297,26.855,13.184,-28.32
1586550869.015,-45.898,34.18,26.367,-11.23,-3.418
1586550869.019,13.672,34.18,26.855,12.695,-44.922
1586550869.023,95.215,33.203,25.879,47.363,23.438
1586550869.027,50.293,31.25,25.391,33.691,120.117
1586550869.031,-41.016,25.879,28.32,0,56.152
1586550869.035,-9.766,28.32,27.344,4.395,-70.312
1586550869.039,77.637,31.738,25.879,40.527,-23.926
1586550869.043,77.637,33.203,31.738,53.711,20.996
1586550869.047,-24.414,34.18,36.133,14.16,-18.066
1586550869.051,-20.508,34.18,33.203,0,14.16
1586550869.055,62.5,33.203,31.738,32.227,7.812
1586550869.058,98.633,29.785,29.297,57.129,44.434
1586550869.062,5.371,31.738,26.855,21.973,93.75
1586550869.066,-35.156,33.203,27.832,-1.953,32.715
1586550869.07,32.715,29.785,27.832,25.391,-6.348
1586550869.074,110.352,31.738,27.344,58.105,7.324
1586550869.078,42.48,32.227,28.32,31.25,-28.809
1586550869.082,-43.945,29.297,30.273,1.953,-49.805
1586550869.086,4.883,27.344,27.344,16.113,-5.859
1586550869.09,92.773,25.391,28.809,56.641,53.711
1586550869.094,66.406,28.809,29.297,56.641,118.164
1586550869.098,-36.621,31.25,25.391,0,134.766
1586550869.101,-14.648,27.344,26.855,-3.418,95.215
1586550869.105,75.684,30.762,24.902,40.039,35.156
1586550869.109,83.496,32.227,26.855,45.41,46.387
1586550869.113,-16.602,34.18,36.621,4.395,27.344
1586550869.117,-34.18,39.062,36.621,0,43.945
1586550869.121,37.109,36.621,33.203,22.461,21.973
1586550869.125,71.777,35.156,41.504,27.832,37.109
1586550869.129,-36.133,33.203,51.758,-15.137,98.145
1586550869.133,-95.703,36.133,61.035,-56.152,26.855
1586550869.137,-40.039,47.363,55.664,-52.734,8.789
1586550869.14,32.227,46.387,52.734,-30.273,34.18
1586550869.144,-41.016,43.945,65.43,-59.082,79.59
1586550869.148,-140.625,54.199,66.406,-100.586,72.266
1586550869.152,-119.629,53.711,64.453,-98.145,11.23
1586550869.156,-49.316,49.316,70.801,-76.172,50.293
1586550869.16,-79.59,54.688,70.801,-92.773,44.922
1586550869.164,-190.43,54.688,73.73,-147.949,-9.277
1586550869.168,-185.547,57.129,77.637,-167.48,-26.855
1586550869.172,-109.863,57.617,80.566,-144.531,27.344
1586550869.176,-99.121,55.664,86.426,-133.789,69.336
1586550869.18,-214.844,54.688,97.168,-180.176,45.898
1586550869.183,-250.488,56.152,103.027,-213.379,63.477
1586550869.187,-174.805,54.688,101.562,-190.918,53.711
1586550869.191,-120.605,49.316,96.191,-154.297,50.781
1586550869.195,-203.613,55.664,93.75,-184.57,36.133
1586550869.199,-263.184,62.012,101.074,-224.121,-8.301
1586550869.203,-200.684,61.523,101.562,-201.66,-1.953
1586550869.207,-102.539,57.129,88.867,-144.043,58.594
1586550869.211,-131.348,55.176,83.496,-136.719,27.344
1586550869.215,-200.684,51.758,85.938,-159.18,-63.965
1586550869.219,-147.461,47.852,83.496,-131.348,-33.203
1586550869.223,-38.574,52.246,73.73,-72.754,26.367
1586550869.226,-26.855,50.293,62.012,-55.176,61.523
1586550869.23,-108.398,47.852,54.688,-76.172,39.062
1586550869.234,-87.891,48.828,46.875,-56.641,-5.859
1586550869.238,11.719,41.992,35.156,-10.742,59.57
1586550869.242,69.336,36.621,29.785,22.461,69.824
1586550869.246,-5.859,36.621,26.855,0.488,-16.113
1586550869.25,-22.949,37.109,19.531,-6.348,24.902
1586550869.254,54.688,35.156,16.113,23.438,83.008
1586550869.258,133.789,31.738,13.672,66.895,48.828
1586550869.262,74.707,29.297,10.254,61.523,26.367
1586550869.265,4.883,27.832,5.371,37.109,40.527
1586550869.269,62.5,25.879,0.488,62.988,40.039
1586550869.273,161.621,24.414,-0.977,111.328,26.367
1586550869.277,136.719,25.391,-4.395,116.211,0
1586550869.281,40.527,24.414,-8.301,80.566,23.438
1586550869.285,72.754,20.508,-11.719,79.59,72.266
1586550869.289,176.27,19.043,-13.184,121.582,37.598
1586550869.293,181.152,23.438,-13.184,133.789,-33.691
1586550869.297,74.707,22.461,-17.578,97.168,0
1586550869.301,71.289,18.066,-16.602,94.727,66.406
1586550869.305,158.203,17.578,-19.043,133.301,44.922
1586550869.308,203.125,17.09,-18.555,158.203,31.738
1586550869.312,115.234,17.09,-12.207,123.535,38.086
1586550869.316,74.219,16.602,-10.742,103.027,27.344
1586550869.32,138.184,14.16,-7.812,124.512,35.645
1586550869.324,206.543,13.184,-5.371,154.297,43.457
1586550869.328,137.207,11.23,-2.441,139.648,6.348
1586550869.332,57.129,14.16,0.488,102.539,-5.371
1586550869.336,105.469,13.184,0,110.84,-23.926
1586550869.34,194.336,4.395,-2.441,140.625,-8.301
1586550869.344,165.527,5.859,-1.465,132.812,-27.832
1586550869.348,61.035,13.672,1.953,97.168,-49.805
1586550869.351,77.148,14.648,4.395,92.773,10.254
1586550869.355,164.062,15.625,4.395,120.605,13.672
1586550869.359,182.129,16.602,1.953,132.324,18.066
1586550869.363,74.219,14.648,2.93,92.773,61.035
1586550869.367,46.875,16.113,4.395,79.102,-5.371
1586550869.371,124.023,18.066,7.324,107.422,-37.598
1586550869.375,177.246,19.043,8.301,135.254,-2.441
1586550869.379,90.332,19.043,6.348,99.121,3.906
1586550869.383,31.25,20.508,8.301,65.43,4.395
1586550869.387,88.867,21.973,9.766,87.402,18.066
1586550869.39,170.898,20.996,9.277,123.535,39.551
1586550869.394,112.305,21.973,11.23,104.492,49.805
1586550869.398,13.672,19.531,12.207,60.059,69.336
1586550869.402,55.176,19.043,13.672,63.477,76.66
1586550869.406,149.902,21.484,15.137,99.121,51.758
1586550869.41,135.254,20.996,15.625,100.098,25.391
1586550869.414,24.414,20.996,19.043,54.688,54.199
1586550869.418,20.996,21.484,18.066,49.316,-3.906
1586550869.422,105.957,21.973,14.648,85.449,-37.109
1586550869.426,134.766,22.461,18.066,102.539,36.621
1586550869.43,29.297,22.461,20.996,60.547,73.73
1586550869.433,-3.418,21.973,21.484,34.668,34.668
1586550869.437,77.148,22.949,19.531,57.617,50.293
1586550869.441,139.648,23.438,18.555,87.891,58.594
1586550869.445,47.363,19.531,21.484,54.688,34.18
1586550869.449,-20.02,19.531,17.09,19.531,19.531
1586550869.453,40.527,22.461,16.113,41.992,43.457
1586550869.457,126.953,22.461,23.438,80.078,43.945
1586550869.461,83.984,23.438,25.879,65.918,54.688
1586550869.465,-11.23,24.902,24.902,24.414,71.289
1586550869.469,20.508,23.926,23.438,35.156,13.672
1586550869.473,110.352,25.391,22.461,73.242,-7.324
1586550869.476,106.934,29.297,22.949,72.266,37.109
1586550869.48,-4.883,28.809,23.926,23.926,40.527
1586550869.484,-7.812,25.879,25.391,11.719,-13.184
1586550869.488,83.008,27.832,27.344,51.758,-10.742
1586550869.492,114.258,32.227,26.855,75.684,22.461
1586550869.496,13.672,29.297,23.926,35.156,7.324
1586550869.5,-24.414,23.438,22.461,6.836,-14.648
1586550869.504,43.457,24.902,23.438,34.18,-5.371
1586550869.508,113.77,27.832,23.926,74.219,82.031
1586550869.512,40.039,27.832,23.926,50.293,63.965
1586550869.515,-33.203,27.832,26.855,17.09,20.02
1586550869.519,20.508,33.203,24.902,30.273,29.785
1586550869.523,105.957,33.691,22.949,61.523,30.273
1586550869.527,74.219,29.785,24.414,58.594,36.133
1586550869.531,-31.738,30.273,25.879,16.602,4.883
1586550869.535,-6.836,32.715,26.855,19.043,-21.973
1586550869.539,92.285,31.738,27.344,58.105,-11.23
1586550869.543,106.445,31.25,28.32,67.871,52.246
1586550869.547,0.488,33.203,29.785,27.344,27.344
1586550869.551,-16.113,31.738,26.855,7.324,-37.109
1586550869.555,60.547,28.809,25.879,34.668,-11.719
1586550869.558,108.887,24.414,26.855,68.359,62.012
1586550869.562,17.578,20.996,26.855,33.691,68.359
1586550869.566,-36.621,20.508,27.344,1.465,62.012
1586550869.57,29.297,22.461,27.344,23.926,75.684
1586550869.574,112.793,22.461,26.855,59.082,21.484
1586550869.578,54.688,20.508,26.855,42.48,30.762
1586550869.582,-31.25,24.414,26.855,6.836,26.855
1586550869.586,9.277,25.879,23.926,21.973,-18.555
1586550869.59,95.703,25.391,26.367,62.012,10.254
1586550869.594,76.66,25.879,25.391,57.129,31.25
1586550869.598,-24.414,25.879,22.461,8.301,-8.301
1586550869.601,-7.812,24.414,22.461,7.324,-1.953
1586550869.605,78.125,24.414,21.484,45.41,31.25
1586550869.609,102.539,26.855,22.949,55.664,37.598
1586550869.613,5.371,29.785,23.926,17.09,13.672
1586550869.617,-25.879,26.367,26.367,2.441,14.16
1586550869.621,37.598,21.973,27.344,31.738,1.953
1586550869.625,98.633,20.02,26.855,59.57,8.301
1586550869.629,23.438,22.949,23.926,23.926,57.129
1586550869.633,-35.645,31.25,21.973,-0.488,54.199
1586550869.637,27.832,34.18,23.926,23.926,45.41
1586550869.64,108.887,33.691,24.414,52.246,30.273
1586550869.644,57.617,32.227,29.297,44.922,7.812
1586550869.648,-31.25,30.273,31.25,10.254,-22.461
1586550869.652,3.418,32.715,26.855,13.672,21.484
1586550869.656,97.656,32.715,26.855,51.27,36.133
1586550869.66,94.727,32.227,26.855,50.781,1.465
1586550869.664,-12.695,32.715,26.855,9.277,-36.133
1586550869.668,-11.719,33.203,24.902,7.812,45.898
1586550869.672,74.219,34.668,25.879,47.363,98.145
1586550869.676,105.957,34.18,29.297,68.359,65.43
1586550869.68,7.324,33.203,27.344,28.32,21.973
1586550869.683,-26.855,33.203,25.391,6.348,29.297
1586550869.687,50.781,32.715,27.832,32.227,43.457
1586550869.691,112.793,32.227,26.367,62.5,91.797
1586550869.695,30.273,30.762,24.902,40.527,70.312
1586550869.699,-38.086,31.738,24.902,6.836,-26.367
1586550869.703,10.742,31.25,23.926,16.113,1.465
1586550869.707,93.75,27.344,28.809,57.617,-19.043
1586550869.711,58.594,28.32,30.273,51.27,20.996
1586550869.715,-33.203,27.832,29.785,10.742,36.133
1586550869.719,-15.137,27.832,29.785,9.766,30.762
1586550869.723,71.289,30.273,27.832,41.992,28.809
1586550869.726,82.031,29.785,29.297,55.664,58.594
1586550869.73,-20.02,29.297,30.273,13.184,72.754
1586550869.734,-24.902,30.762,29.785,-3.418,32.715
1586550869.738,57.617,31.738,31.738,31.25,55.176
1586550869.742,101.562,34.18,32.715,60.547,72.754
1586550869.746,11.719,33.203,32.715,28.809,35.156
1586550869.75,-32.715,29.297,34.18,3.418,-0.488
1586550869.754,37.109,31.25,31.738,30.762,-8.789
1586550869.758,107.422,33.203,27.344,67.871,43.945
1586550869.762,39.551,31.25,28.32,41.992,19.043
1586550869.765,-33.203,28.809,33.691,5.371,-43.457
1586550869.769,15.137,28.809,36.133,18.066,-0.977
1586550869.773,97.656,25.391,33.203,53.223,41.992
1586550869.777,66.406,20.996,31.738,46.387,51.27
1586550869.781,-25.879,28.32,27.832,6.348,44.434
1586550869.785,0.488,33.203,25.391,14.16,31.25
1586550869.789,73.242,30.762,30.273,40.527,40.527
1586550869.793,76.66,32.227,34.18,45.41,71.289
1586550869.797,-24.902,34.18,34.18,9.766,49.316
1586550869.801,-37.598,34.668,33.203,-7.324,18.555
1586550869.805,40.039,31.25,33.203,20.508,21.973
1586550869.808,86.426,29.297,34.18,46.875,61.523
1586550869.812,9.766,31.25,32.227,16.602,36.133
1586550869.816,-42.969,32.227,33.203,-7.324,10.254
1586550869.82,17.578,31.25,32.227,14.16,-18.066
1586550869.824,102.051,31.25,27.832,51.758,-40.527
1586550869.828,45.41,31.25,26.367,42.969,-22.949
1586550869.832,-48.34,29.297,27.344,2.441,-31.25
1586550869.836,-9.766,27.832,27.832,2.93,15.137
1586550869.84,79.102,25.391,27.344,43.457,50.781
1586550869.844,67.383,28.809,30.273,49.316,50.293
1586550869.848,-33.203,31.25,33.203,2.93,32.715
1586550869.851,-25.879,30.273,34.18,-4.883,63.477
1586550869.855,63.477,30.762,32.715,37.109,83.984
1586550869.859,87.891,32.715,30.762,61.035,51.27
1586550869.863,-10.742,30.273,30.762,23.438,29.785
1586550869.867,-31.25,27.832,30.273,0,27.832
1586550869.871,44.922,29.785,30.762,25.879,40.039
1586550869.875,105.469,29.785,33.203,61.035,27.832
1586550869.879,25.391,32.715,32.227,34.18,27.344
1586550869.883,-36.133,32.715,30.273,4.395,29.785
1586550869.887,24.902,30.762,33.691,25.879,-1.465
1586550869.89,109.375,32.227,33.691,63.965,-6.348
1586550869.894,66.406,32.715,31.738,49.316,16.602
1586550869.898,-29.297,31.738,32.227,6.348,20.508
1586550869.902,2.441,31.25,29.785,17.578,41.992
1586550869.906,92.773,33.203,25.391,50.781,66.406
1586550869.91,88.379,32.227,26.367,52.246,49.805
1586550869.914,-10.254,32.227,29.297,18.066,55.176
1586550869.918,-11.719,31.25,27.344,2.441,66.406
1586550869.922,74.707,30.762,24.902,29.785,54.688
1586550869.926,118.652,30.762,23.926,63.477,19.043
1586550869.93,7.324,26.855,26.367,19.043,-1.465
1586550869.933,-40.527,25.879,27.344,-13.672,24.414
1586550869.937,37.598,28.32,24.414,17.578,59.082
1586550869.941,97.656,27.832,24.414,43.945,31.25
1586550869.945,20.996,30.762,26.855,15.137,35.156
1586550869.949,-50.781,30.762,28.809,-18.555,71.289
1586550869.953,-9.277,27.344,30.762,-3.906,12.695
1586550869.957,80.566,29.297,27.832,42.48,33.203
1586550869.961,53.711,25.391,27.344,36.621,46.875
1586550869.965,-42.969,24.414,29.785,-6.348,22.461
1586550869.969,-18.555,33.203,25.879,-1.953,23.926
1586550869.973,72.266,37.109,25.391,33.203,13.672
1586550869.976,84.961,37.598,28.32,41.504,29.785
1586550869.98,-23.438,32.715,28.809,3.906,32.715
1586550869.984,-37.109,26.367,26.367,-4.883,17.578
1586550869.988,43.457,26.367,23.926,23.438,-1.465
1586550869.992,99.121,28.32,24.902,53.223,-16.113
1586550869.996,15.625,30.273,27.832,26.855,-47.852
1586550870,-39.551,30.273,27.832,-2.93,3.906
1586550870.004,30.762,30.762,25.879,21.973,70.801
1586550870.008,113.77,32.715,26.367,62.012,39.551
1586550870.012,47.852,30.273,26.855,42.969,12.207
1586550870.015,-27.832,29.297,27.832,10.254,1.953
1586550870.019,18.066,28.809,26.855,24.414,-31.25
1586550870.023,100.098,28.32,25.391,57.617,34.18
1586550870.027,78.125,31.25,25.879,56.152,68.359
1586550870.031,-21.973,31.738,25.391,14.648,49.805
1586550870.035,1.953,30.273,23.438,10.742,54.199
1586550870.039,86.914,33.691,23.438,47.852,44.434
1586550870.043,105.957,31.25,31.738,62.988,92.285
1586550870.047,8.301,28.809,30.762,23.438,46.387
1586550870.051,-18.066,32.227,27.344,2.93,2.93
1586550870.055,61.035,32.715,25.391,28.809,44.434
1586550870.058,124.023,31.738,22.949,63.965,75.684
1586550870.062,32.227,33.691,29.785,30.762,45.898
1586550870.066,-32.715,33.203,25.391,-2.93,2.93
1586550870.07,34.18,32.227,20.996,27.344,70.801
1586550870.074,115.234,34.668,31.25,64.941,101.074
1586550870.078,57.617,32.715,40.039,40.527,62.988
1586550870.082,-23.438,35.156,42.969,2.93,44.922
1586550870.086,14.648,35.645,40.039,9.277,23.926
1586550870.09,96.68,30.273,32.227,48.34,43.457
1586550870.094,88.379,31.25,28.32,58.105,40.039
1586550870.098,-16.113,33.691,30.273,13.184,44.922
1586550870.101,-9.277,31.738,29.785,9.277,78.125
1586550870.105,76.66,30.762,31.25,43.457,61.523
1586550870.109,103.516,34.18,32.715,58.594,43.457
1586550870.113,9.277,35.156,31.738,25.391,24.902
1586550870.117,-25.391,32.715,30.273,4.395,30.273
1586550870.121,41.016,29.785,27.832,29.297,-50.781
1586550870.125,111.816,28.809,27.832,63.477,-9.277
1586550870.129,32.227,28.809,31.25,35.156,56.641
1586550870.133,-40.039,25.879,32.715,-0.977,62.012
1586550870.137,17.578,24.902,29.297,15.137,47.852
1586550870.14,99.121,27.832,27.344,55.176,35.156
1586550870.144,57.617,32.227,27.344,42.969,1.465
1586550870.148,-31.738,30.762,27.832,-1.953,-33.203
1586550870.152,4.883,28.32,26.855,14.16,-21.973
1586550870.156,84.961,33.691,24.902,49.316,-1.953
1586550870.16,76.172,34.18,25.879,42.969,29.785
1586550870.164,-28.32,30.273,26.367,2.441,31.25
1586550870.168,-36.621,31.25,24.414,-6.348,13.672
1586550870.172,49.805,33.203,23.438,23.926,28.809
1586550870.176,91.797,34.668,22.461,41.016,25.391
1586550870.18,-1.953,33.691,27.344,8.301,0.488
1586550870.183,-41.504,33.691,28.32,-2.93,-13.184
1586550870.187,29.297,34.668,24.414,24.902,-17.09
1586550870.191,104.004,32.227,25.391,54.199,47.363
1586550870.195,35.645,32.227,25.391,37.598,14.648
1586550870.199,-41.992,32.715,23.438,0.488,32.227
1586550870.203,8.789,29.785,22.461,8.301,48.828
1586550870.207,98.633,27.344,20.996,53.711,30.273
1586550870.211,66.406,27.832,20.508,48.828,46.387
1586550870.215,-34.18,26.855,22.461,6.836,67.383
1586550870.219,-18.555,25.391,23.926,14.648,51.758
1586550870.223,66.406,25.391,25.879,48.34,-19.043
1586550870.226,86.426,28.809,26.367,60.547,-10.254
1586550870.23,-15.625,23.926,24.902,16.602,8.789
1586550870.234,-39.062,18.555,23.926,-4.395,-16.113
1586550870.238,42.48,24.414,23.926,28.32,11.23
1586550870.242,104.98,24.902,24.902,54.688,64.453
1586550870.246,18.555,25.391,26.855,27.832,78.613
1586550870.25,-37.109,27.832,29.297,-0.977,22.461
1586550870.254,25.879,27.344,28.809,18.066,-13.184
1586550870.258,104.492,26.367,25.879,55.176,14.16
1586550870.262,51.27,26.367,26.855,39.062,35.645
1586550870.265,-31.738,27.832,26.855,1.465,15.625
1586550870.269,5.371,22.949,22.949,10.742,24.902
1586550870.273,93.262,24.902,20.02,51.27,41.992
1586550870.277,81.055,33.691,21.973,49.316,0.977
1586550870.281,-23.438,33.203,23.438,3.418,34.18
1586550870.285,-10.742,26.855,25.391,5.859,60.547
1586550870.289,74.219,28.809,23.926,41.016,69.824
1586550870.293,87.402,37.109,20.996,42.969,69.336
1586550870.297,-9.766,41.016,22.461,0,20.996
1586550870.301,-29.785,39.062,20.02,-15.137,-20.996
1586550870.305,42.969,39.062,16.602,10.254,-26.855
1586550870.308,96.68,43.457,16.602,31.738,15.137
1586550870.312,14.648,48.34,17.578,0.977,43.945
1586550870.316,-45.898,47.852,15.625,-29.785,-10.742
1586550870.32,6.348,49.805,7.812,-16.113,22.461
1586550870.324,80.566,56.641,4.883,13.184,72.754
1586550870.328,36.621,53.711,7.324,4.883,36.621
1586550870.332,-54.688,52.246,7.812,-28.809,41.992
1586550870.336,-19.043,49.316,9.277,-20.508,39.062
1586550870.34,70.801,43.945,10.254,23.926,38.086
1586550870.344,62.012,43.945,11.719,33.691,3.418
1586550870.348,-36.621,44.922,13.184,-7.812,-13.672
1586550870.351,-26.367,45.41,13.184,-13.672,43.945
1586550870.355,59.082,43.945,17.09,25.879,47.363
1586550870.359,96.191,42.48,20.02,50.293,50.293
1586550870.363,0.488,41.504,20.02,14.16,19.531
1586550870.367,-32.715,39.062,21.973,-3.418,-12.695
1586550870.371,48.34,41.016,20.02,27.344,25.879
1586550870.375,114.258,40.039,17.578,60.547,5.859
1586550870.379,40.527,38.086,18.066,33.691,-18.555
1586550870.383,-33.691,37.109,21.973,-1.953,-13.672
1586550870.387,13.184,38.086,26.367,15.137,2.93
1586550870.39,99.609,38.086,24.902,52.246,47.852
1586550870.394,64.941,36.621,21.484,44.434,36.621
1586550870.398,-25.879,38.574,23.438,9.766,30.273
1586550870.402,2.93,41.504,24.902,14.16,71.289
1586550870.406,88.867,41.992,22.949,52.246,88.867
1586550870.41,88.867,38.574,23.438,62.5,47.852
1586550870.414,-19.531,38.574,23.438,13.672,57.617
1586550870.418,-27.344,36.133,23.438,0.977,102.051
1586550870.422,58.105,37.109,22.949,35.156,82.52
1586550870.426,100.586,38.574,23.438,59.57,17.09
1586550870.43,13.672,35.645,25.391,29.297,-2.441
1586550870.433,-26.367,36.621,26.367,2.93,21.484
1586550870.437,36.133,38.574,24.902,26.855,33.203
1586550870.441,110.352,37.109,22.949,64.941,22.461
1586550870.445,46.387,36.621,25.391,45.41,3.906
1586550870.449,-31.25,35.645,27.344,5.371,-33.691
1586550870.453,20.508,35.645,26.855,18.555,19.043
1586550870.457,109.375,37.598,26.855,55.176,29.785
1586550870.461,78.613,38.086,28.809,48.828,15.137
1586550870.465,-27.832,38.574,29.297,6.836,45.898
1586550870.469,-8.301,36.621,26.367,9.277,22.949
1586550870.473,76.66,33.203,27.344,47.363,32.715
1586550870.476,89.355,32.227,26.855,56.152,58.594
1586550870.48,-10.254,33.203,27.832,17.578,54.199
1586550870.484,-28.32,32.715,30.762,5.371,69.336
1586550870.488,54.688,31.25,28.32,34.668,87.402
1586550870.492,109.863,33.203,30.273,62.988,100.586
1586550870.496,19.531,34.18,34.668,33.203,50.781
1586550870.5,-37.109,30.273,33.203,9.277,39.062
1586550870.504,26.367,34.18,31.738,28.32,75.684
1586550870.508,104.492,34.668,30.273,61.035,84.961
1586550870.512,49.805,27.832,30.273,44.434,35.156
1586550870.515,-37.109,30.762,27.344,6.348,-18.555
1586550870.519,-1.465,34.668,22.461,15.625,36.133
1586550870.523,87.402,34.668,24.414,50.293,14.16
1586550870.527,80.078,38.086,27.344,49.316,12.695
1586550870.531,-24.902,37.109,24.414,5.859,19.043
1586550870.535,-20.508,35.156,26.367,3.418,-49.805
1586550870.539,69.336,35.156,28.32,40.039,17.09
1586550870.543,104.98,35.645,24.414,60.059,49.316
1586550870.547,4.395,35.645,25.391,24.902,14.16
1586550870.551,-31.738,34.18,27.832,4.395,71.289
1586550870.555,45.41,32.227,24.414,33.691,68.848
1586550870.558,116.699,32.715,25.391,62.988,52.246
1586550870.562,37.109,37.109,28.32,33.203,55.176
1586550870.566,-34.668,35.645,28.809,1.953,28.32
1586550870.57,19.531,33.203,28.32,26.367,-27.344
1586550870.574,100.098,33.691,26.367,67.871,25.391
1586550870.578,58.594,32.715,29.785,51.27,107.91
1586550870.582,-33.203,34.668,31.738,9.766,42.969
1586550870.586,-5.371,35.645,31.25,17.578,35.645
1586550870.59,84.473,33.203,28.32,53.711,60.059
1586550870.594,90.332,35.645,26.855,59.57,6.836
1586550870.598,-7.812,37.598,30.273,18.555,12.207
1586550870.601,-14.648,32.715,29.297,5.371,-5.859
1586550870.605,65.43,30.762,28.32,39.062,53.223
1586550870.609,105.957,30.762,29.785,61.523,135.254
1586550870.613,6.836,26.367,31.25,24.902,51.758
1586550870.617,-33.203,28.809,31.738,-1.953,79.102
1586550870.621,39.062,30.273,32.715,18.555,18.066
1586550870.625,112.793,28.809,34.18,59.082,-15.625
1586550870.629,47.363,30.762,31.25,35.156,27.832
1586550870.633,-30.273,24.902,28.809,-3.418,-46.875
1586550870.637,17.09,24.414,28.32,15.625,-32.715
1586550870.64,103.516,32.227,26.367,49.805,52.246
1586550870.644,71.289,34.18,26.367,43.457,47.363
1586550870.648,-32.227,31.738,27.832,5.859,55.664
1586550870.652,-6.836,31.25,29.785,12.207,19.531
1586550870.656,84.961,30.273,27.344,47.363,-1.465
1586550870.66,93.75,33.203,24.902,55.664,21.484
1586550870.664,-11.719,29.297,28.32,16.602,-15.625
1586550870.668,-28.809,27.832,29.785,3.906,20.508
1586550870.672,55.176,31.25,27.832,33.691,32.227
1586550870.676,112.793,30.762,27.832,57.617,53.223
1586550870.68,19.043,34.18,29.297,23.926,-9.277
1586550870.683,-36.621,34.18,29.785,-1.953,-24.902
1586550870.687,28.32,32.715,28.32,22.949,40.039
1586550870.691,109.863,35.156,26.367,59.082,24.902
1586550870.695,48.828,34.668,25.391,38.574,18.066
1586550870.699,-35.645,29.297,27.344,-0.977,-38.086
1586550870.703,8.301,29.297,29.297,12.207,-42.969
1586550870.707,96.191,31.738,28.809,49.805,23.438
1586550870.711,76.66,32.715,27.832,47.363,34.668
1586550870.715,-25.879,33.203,27.832,4.883,-22.461
1586550870.719,-10.742,31.738,29.297,1.953,10.742
1586550870.723,74.707,32.715,29.297,39.551,51.27
1586550870.726,101.562,31.738,31.25,55.664,44.922
1586550870.73,-0.488,31.738,32.227,18.555,73.242
1586550870.734,-23.926,32.715,32.227,6.836,73.242
1586550870.738,54.199,27.832,31.738,37.109,58.105
1586550870.742,112.305,26.855,30.762,69.824,100.098
1586550870.746,33.203,30.273,32.715,41.992,74.219
1586550870.75,-31.25,28.809,34.18,14.648,36.621
1586550870.754,25.879,27.832,32.715,31.25,4.883
1586550870.758,101.074,29.297,30.762,58.105,-8.301
1586550870.762,51.758,28.32,30.273,43.945,8.301
1586550870.765,-36.621,27.832,28.809,2.93,-14.16
1586550870.769,-2.441,28.32,28.809,11.23,-11.23
1586550870.773,88.867,29.297,31.25,55.176,8.789
1586550870.777,73.242,31.25,31.25,55.176,32.227
1586550870.781,-27.832,31.25,30.762,9.766,37.109
1586550870.785,-21.973,28.809,30.273,-2.93,45.898
1586550870.789,62.5,27.344,28.809,28.32,25.879
1586550870.793,100.586,28.809,30.273,53.223,34.18
1586550870.797,-2.441,28.809,31.25,18.555,8.789
1586550870.801,-40.039,26.367,30.273,-4.883,19.531
1586550870.805,34.668,28.809,28.32,21.973,50.781
1586550870.808,105.957,29.785,25.391,58.594,43.945
1586550870.812,30.762,29.297,25.879,34.668,45.898
1586550870.816,-31.25,31.25,26.855,4.395,-4.395
1586550870.82,24.902,32.227,24.902,13.672,-3.906
1586550870.824,102.539,32.715,25.879,49.805,66.895
1586550870.828,66.895,32.715,27.344,45.41,78.613
1586550870.832,-31.738,30.273,28.809,0,18.555
1586550870.836,-11.719,30.273,28.809,3.418,10.254
1586550870.84,77.637,29.785,26.367,42.969,-16.113
1586550870.844,84.961,29.297,23.926,54.199,26.367
1586550870.848,-15.625,30.762,25.391,14.648,18.555
1586550870.851,-26.367,29.785,27.832,0.488,-52.246
1586550870.855,57.617,30.762,27.832,34.668,-16.113
1586550870.859,107.422,28.32,28.32,64.941,33.203
1586550870.863,15.625,26.855,30.273,32.715,58.105
1586550870.867,-35.645,30.273,30.273,3.906,69.824
1586550870.871,28.809,32.227,30.273,28.32,59.082
1586550870.875,114.746,36.133,27.832,62.988,54.199
1586550870.879,54.199,37.109,29.297,39.062,46.387
1586550870.883,-28.809,33.203,32.227,1.953,20.996
1586550870.887,15.625,32.227,30.762,13.184,-9.277
1586550870.89,99.121,32.227,29.297,49.805,43.457
1586550870.894,83.984,31.738,27.344,50.293,39.062
1586550870.898,-7.324,33.203,20.996,17.09,0.488
1586550870.902,-6.348,28.809,23.438,13.672,20.996
1586550870.906,65.918,23.926,27.344,39.062,63.477
1586550870.91,93.75,24.902,28.32,60.059,84.961
1586550870.914,-3.418,23.438,34.668,26.367,25.879
1586550870.918,-25.879,20.508,37.109,6.348,-29.785
1586550870.922,53.711,21.484,37.109,41.992,28.32
1586550870.926,107.91,22.461,39.062,71.289,118.164
1586550870.93,24.414,19.531,39.062,32.227,71.777
1586550870.933,-31.738,18.555,36.621,3.418,9.277
1586550870.937,32.227,20.02,36.133,32.227,40.039
1586550870.941,111.328,21.484,37.109,72.266,60.547
1586550870.945,56.641,25.391,36.621,55.176,73.242
1586550870.949,-37.109,23.438,34.668,8.301,38.086
1586550870.953,-2.441,19.531,35.156,14.16,27.832
1586550870.957,96.191,20.996,34.668,58.594,30.762
1586550870.961,85.938,23.926,33.203,60.547,54.199
1586550870.965,-19.531,23.926,36.621,17.578,73.73
1586550870.969,-13.672,24.902,35.645,13.672,13.184
1586550870.973,71.289,24.414,33.691,49.805,12.207
1586550870.976,103.516,26.855,35.156,68.359,23.438
1586550870.98,5.859,25.879,37.109,28.809,6.836
1586550870.984,-19.043,20.02,39.551,4.883,-15.625
1586550870.988,59.082,20.02,36.133,31.25,30.762
1586550870.992,121.094,25.391,32.227,65.43,24.902
1586550870.996,37.109,29.785,34.668,36.621,-14.16
1586550871,-30.762,30.273,34.668,3.418,39.062
1586550871.004,30.273,29.785,32.715,27.832,82.031
1586550871.008,110.84,27.344,33.203,64.941,88.867
1586550871.012,64.453,27.832,34.668,54.688,44.922
1586550871.015,-29.785,30.273,32.227,11.23,34.668
1586550871.019,-3.418,26.367,30.273,9.766,59.57
1586550871.023,87.891,26.855,30.762,47.852,69.336
1586550871.027,91.309,29.785,27.344,55.176,28.809
1586550871.031,-13.184,27.344,24.902,13.184,11.719
1586550871.035,-15.137,26.367,27.344,5.859,-28.32
1586550871.039,66.406,27.344,28.32,44.922,-31.738
1586550871.043,96.191,27.344,30.273,64.941,14.648
1586550871.047,-0.488,26.367,29.297,26.367,9.766
1586550871.051,-29.785,28.32,26.367,8.301,7.324
1586550871.055,39.551,28.809,26.855,26.367,40.039
1586550871.058,100.098,25.391,28.809,55.664,15.625
1586550871.062,30.762,24.414,30.273,36.621,-3.906
1586550871.066,-42.969,25.391,30.273,-0.488,30.273
1586550871.07,10.742,28.32,27.832,14.16,30.762
1586550871.074,96.191,29.785,26.855,52.246,31.738
1586550871.078,62.012,26.367,27.344,44.922,83.984
1586550871.082,-32.227,22.461,27.344,7.812,58.594
1586550871.086,-12.695,27.344,27.344,14.648,-11.719
1586550871.09,71.777,35.645,25.879,49.316,38.086
1586550871.094,83.496,36.621,24.414,52.734,65.918
1586550871.098,-13.184,33.203,25.879,10.742,31.738
1586550871.101,-29.785,32.715,26.367,-2.441,9.766
1586550871.105,41.016,32.715,24.902,28.809,24.414
1586550871.109,99.121,33.691,26.855,60.059,56.152
1586550871.113,16.113,34.668,33.203,27.832,82.52
1586550871.117,-37.109,33.203,32.227,-1.465,20.508
1586550871.121,32.227,35.645,28.32,21.973,8.301
1586550871.125,110.84,39.062,28.32,58.594,57.129
1586550871.129,56.641,39.551,27.344,38.574,39.062
1586550871.133,-22.461,39.551,26.367,1.953,42.48
1586550871.137,11.719,36.621,27.832,14.648,47.852
1586550871.14,94.727,32.227,28.809,54.199,69.824
1586550871.144,76.66,33.203,29.297,56.152,84.473
1586550871.148,-26.855,33.691,25.391,11.719,49.805
1586550871.152,-14.648,34.668,27.832,11.719,1.465
1586550871.156,72.754,31.25,31.738,50.781,3.418
1586550871.16,91.309,27.344,27.344,59.082,48.34
1586550871.164,-8.789,29.297,24.902,17.578,66.895
1586550871.168,-33.203,24.902,26.855,6.348,69.336
1586550871.172,47.852,22.949,30.762,33.203,22.461
1586550871.176,110.84,27.832,31.738,64.453,-0.488
1586550871.18,22.949,35.156,32.227,36.621,20.508
1586550871.183,-39.062,33.691,32.715,4.883,1.953
1586550871.187,20.508,28.809,31.25,25.391,-27.344
1586550871.191,92.773,28.809,30.762,58.105,-33.203
1586550871.195,47.852,31.25,29.297,45.41,-28.809
1586550871.199,-33.691,29.785,25.879,7.812,25.879
1586550871.203,-4.883,27.832,28.809,8.789,14.648
1586550871.207,83.008,29.297,28.809,42.969,-19.043
1586550871.211,75.684,26.855,25.879,51.27,4.883
1586550871.215,-30.273,26.367,28.809,13.672,24.414
1586550871.219,-17.09,27.344,26.855,2.93,3.418
1586550871.223,72.754,27.832,25.391,37.598,2.93
1586550871.226,106.445,28.32,26.367,62.5,56.152
1586550871.23,7.324,28.32,28.809,24.902,28.32
1586550871.234,-36.621,27.832,30.762,3.418,-18.066
1586550871.238,33.691,28.32,28.809,31.738,8.301
1586550871.242,98.145,27.832,25.391,60.547,38.086
1586550871.246,23.926,26.367,27.344,33.203,-4.395
1586550871.25,-40.039,29.297,27.344,1.953,41.016
1586550871.254,13.672,32.715,25.879,18.555,83.008
1586550871.258,98.145,30.273,28.809,57.617,58.105
1586550871.262,62.012,27.344,27.344,49.316,72.266
1586550871.265,-37.109,28.809,26.855,4.395,27.344
1586550871.269,-6.348,28.32,26.855,10.742,-40.527
1586550871.273,85.938,27.344,23.926,49.316,-33.203
1586550871.277,95.215,28.32,23.926,61.523,32.227
1586550871.281,-5.371,29.297,26.855,22.949,2.441
1586550871.285,-21.973,31.25,25.879,5.371,17.578
1586550871.289,54.688,27.832,24.902,34.18,50.293
1586550871.293,106.445,25.391,26.855,59.57,32.715
1586550871.297,12.207,31.25,25.879,24.902,7.812
1586550871.301,-36.133,34.18,25.879,-1.953,35.645
1586550871.305,44.434,33.691,25.879,22.461,52.734
1586550871.308,119.629,32.227,25.879,52.246,53.223
1586550871.312,48.34,33.203,27.344,36.621,67.871
1586550871.316,-36.621,34.668,27.832,6.348,18.066
1586550871.32,-0.488,31.25,23.926,12.695,16.602
1586550871.324,87.891,27.832,23.926,50.781,41.992
1586550871.328,67.383,29.297,26.367,51.758,45.898
1586550871.332,-26.367,33.203,23.926,11.23,49.316
1586550871.336,-0.488,33.691,25.391,6.836,50.293
1586550871.34,87.891,33.203,27.344,44.922,47.363
1586550871.344,104.98,33.203,29.785,65.918,63.477
1586550871.348,-0.488,32.715,29.785,26.855,70.801
1586550871.351,-24.414,33.691,27.832,5.371,65.43
1586550871.355,52.246,32.227,25.391,36.133,-8.301
1586550871.359,120.117,31.738,22.949,74.219,19.043
1586550871.363,39.551,34.18,24.902,44.922,30.762
1586550871.367,-34.18,31.738,30.762,2.93,20.02
1586550871.371,25.879,24.902,34.18,18.066,45.898
1586550871.375,113.281,24.414,32.715,66.406,30.273
1586550871.379,51.758,25.391,31.25,42.969,31.25
1586550871.383,-40.527,22.949,33.203,-3.906,65.918
1586550871.387,-0.977,23.926,33.203,10.742,23.438
1586550871.39,94.238,23.438,30.762,56.152,49.805
1586550871.394,85.449,24.902,30.273,62.5,86.426
1586550871.398,-19.531,27.344,33.203,17.578,-8.301
1586550871.402,-9.766,23.926,33.203,13.184,-3.906
1586550871.406,74.219,17.09,30.762,49.316,73.73
1586550871.41,102.539,22.461,32.227,66.895,70.801
1586550871.414,2.441,27.832,34.668,27.344,67.383
1586550871.418,-21.484,24.902,31.25,11.23,63.965
1586550871.422,60.059,26.855,29.785,38.086,3.906
1586550871.426,113.77,28.809,27.344,61.035,25.879
1586550871.43,33.203,24.902,30.273,34.18,10.254
1586550871.433,-29.297,25.879,35.156,7.812,-1.465
1586550871.437,29.297,32.227,31.25,26.855,37.109
1586550871.441,109.863,33.691,29.297,65.43,-12.695
1586550871.445,66.406,32.227,31.25,50.293,22.461
1586550871.449,-29.297,29.785,31.738,6.348,46.387
1586550871.453,-4.395,27.344,29.785,18.066,-12.695
1586550871.457,83.496,25.391,27.344,54.199,18.066
1586550871.461,83.496,25.879,30.762,55.176,55.664
1586550871.465,-16.602,27.344,33.203,17.578,23.438
1586550871.469,-13.184,29.297,28.809,8.789,25.879
1586550871.473,73.242,28.32,27.344,41.504,12.207
1586550871.476,105.469,25.391,28.809,65.918,3.906
1586550871.48,7.812,27.344,30.273,32.715,46.387
1586550871.484,-25.879,27.832,30.273,13.184,58.105
1586550871.488,33.203,20.02,32.227,26.855,-2.93
1586550871.492,89.355,24.902,36.621,48.828,50.781
1586550871.496,22.949,37.109,35.645,31.738,33.203
1586550871.5,-55.176,36.621,30.762,-3.906,31.25
1586550871.504,-8.301,35.156,30.762,5.371,55.664
1586550871.508,77.148,34.18,27.832,38.574,23.438
1586550871.512,37.109,37.109,27.344,25.391,29.785
1586550871.515,-72.266,37.109,32.715,-25.391,2.441
1586550871.519,-51.27,35.156,32.227,-29.785,28.32
1586550871.523,41.504,39.551,34.668,7.324,31.25
1586550871.527,36.621,41.504,40.527,13.184,54.688
1586550871.531,-72.754,27.832,39.062,-30.273,79.59
1586550871.535,-71.289,18.555,35.156,-41.992,41.504
1586550871.539,20.508,43.945,34.668,-2.93,32.227
1586550871.543,73.242,60.059,37.109,29.785,41.504
1586550871.547,-12.207,51.758,35.645,-3.906,26.367
1586550871.551,-53.223,45.41,30.762,-23.926,-15.625
1586550871.555,16.602,41.016,29.297,4.395,-22.461
1586550871.558,98.633,39.551,29.297,38.086,12.695
1586550871.562,38.086,37.109,31.25,25.879,27.344
1586550871.566,-44.922,33.691,29.297,-5.859,2.441
1586550871.57,1.953,29.297,26.855,11.719,-15.625
1586550871.574,89.355,28.32,30.762,52.246,-4.395
1586550871.578,78.125,29.297,31.738,51.27,33.203
1586550871.582,-19.531,26.367,30.762,17.09,46.875
1586550871.586,-9.766,26.367,27.832,15.137,49.316
1586550871.59,84.961,25.879,24.902,47.363,83.496
1586550871.594,104.98,25.879,27.832,66.406,20.508
1586550871.598,-1.953,25.879,27.832,31.25,-1.465
1586550871.601,-16.113,21.484,22.461,13.672,19.531
1586550871.605,63.477,24.414,23.926,48.828,20.02
1586550871.609,120.117,29.297,26.367,80.078,28.32
1586550871.613,38.574,29.785,28.809,45.898,4.883
1586550871.617,-23.926,28.809,28.32,12.207,6.836
1586550871.621,34.18,27.832,23.926,33.203,23.438
1586550871.625,125,29.297,23.438,67.383,67.871
1586550871.629,79.102,29.785,26.367,50.781,35.156
1586550871.633,-15.137,28.32,27.832,16.602,-18.066
1586550871.637,17.578,26.855,27.344,27.344,17.578
1586550871.64,107.422,26.367,25.391,65.918,28.809
1586550871.644,96.191,26.367,27.832,67.871,52.734
1586550871.648,-6.836,26.367,26.367,22.461,59.082
1586550871.652,0,27.344,22.949,13.672,4.395
1586550871.656,83.008,27.832,22.949,52.246,-3.906
1586550871.66,119.141,29.785,25.391,78.125,50.293
1586550871.664,21.973,29.297,26.855,40.527,102.051
1586550871.668,-13.184,27.344,24.902,18.066,41.504
1586550871.672,60.059,25.391,22.949,40.039,-12.207
1586550871.676,120.605,25.391,23.926,62.988,21.973
1586550871.68,45.898,28.809,25.391,38.574,26.855
1586550871.683,-21.973,27.344,23.438,7.324,43.457
1586550871.687,23.926,26.855,23.438,25.391,40.527
1586550871.691,102.539,29.297,23.926,61.523,7.324
1586550871.695,67.871,25.879,27.344,54.199,37.598
1586550871.699,-26.367,26.367,29.785,15.137,43.457
1586550871.703,-3.418,29.297,25.391,15.137,25.391
1586550871.707,80.566,27.344,25.879,53.223,30.273
1586550871.711,88.867,27.832,27.344,64.941,35.645
1586550871.715,-9.766,26.367,25.391,24.414,13.184
1586550871.719,-13.672,26.855,22.461,7.324,-2.441
1586550871.723,64.941,27.832,22.949,37.598,25.391
1586550871.726,101.074,26.855,25.879,62.012,-20.02
1586550871.73,8.301,25.879,25.391,24.902,-30.762
1586550871.734,-36.133,25.879,22.949,1.465,64.453
1586550871.738,40.039,26.855,23.926,27.344,48.828
1586550871.742,114.258,26.367,26.367,60.547,12.695
1586550871.746,39.062,26.855,28.809,34.668,47.363
1586550871.75,-33.691,26.367,28.32,-1.465,-6.348
1586550871.754,12.207,26.855,26.855,12.207,-10.742
1586550871.758,91.797,24.902,28.32,49.316,63.477
1586550871.762,70.801,24.902,29.297,49.805,63.965
1586550871.765,-24.414,26.855,25.391,10.742,37.598
1586550871.769,-4.395,25.879,23.926,8.301,28.809
1586550871.773,90.82,27.832,24.414,44.922,57.617
1586550871.777,99.121,30.762,26.855,58.594,94.727
1586550871.781,-10.254,31.738,32.227,16.113,12.207
1586550871.785,-25.391,30.762,32.227,2.441,-5.859
1586550871.789,55.176,28.32,30.273,35.645,39.062
1586550871.793,110.352,31.738,28.32,61.523,44.434
1586550871.797,23.438,35.645,28.809,33.203,10.254
1586550871.801,-29.297,33.691,27.832,10.254,-29.785
1586550871.805,29.297,31.738,28.809,26.855,-1.465
1586550871.808,104.492,30.762,29.297,60.059,27.832
1586550871.812,44.922,31.738,29.297,45.898,11.719
1586550871.816,-38.086,28.809,29.785,5.371,23.438
1586550871.82,5.859,24.414,28.809,16.602,-2.441
1586550871.824,95.215,30.273,24.902,57.129,19.531
1586550871.828,82.52,36.133,24.414,52.734,40.039
1586550871.832,-19.043,33.691,30.762,10.742,-29.785
1586550871.836,-8.789,30.762,31.738,8.301,22.461
1586550871.84,77.637,32.227,29.785,40.527,65.918
1586550871.844,101.562,33.691,32.227,59.57,-15.625
1586550871.848,-3.906,33.203,33.203,25.879,-14.16
1586550871.851,-29.297,34.18,30.762,5.859,34.668
1586550871.855,41.504,33.691,30.762,31.738,51.758
1586550871.859,101.074,32.715,25.391,65.43,100.586
1586550871.863,30.762,35.645,25.879,43.945,105.957
1586550871.867,-33.691,34.668,33.691,10.254,76.66
1586550871.871,19.531,29.297,30.273,17.578,72.266
1586550871.875,103.027,30.762,27.832,55.176,69.824
1586550871.879,57.617,32.715,31.738,47.363,13.672
1586550871.883,-38.086,35.156,32.715,5.371,13.672
1586550871.887,-7.324,36.133,27.832,9.766,24.902
1586550871.89,90.332,32.715,28.32,54.688,22.949
1586550871.894,96.68,33.691,31.25,63.965,58.594
1586550871.898,-13.672,35.156,28.809,15.625,60.059
1586550871.902,-24.902,28.32,29.785,8.789,16.113
1586550871.906,59.57,22.461,29.785,43.945,1.953
1586550871.91,99.609,29.297,27.832,62.5,-29.785
1586550871.914,3.906,37.109,31.25,22.461,-69.824
1586550871.918,-38.086,34.18,34.18,-2.441,-62.012
1586550871.922,31.738,32.715,33.203,22.461,29.297
1586550871.926,100.586,34.668,29.785,56.152,111.816
1586550871.93,37.109,33.691,29.785,32.715,91.797
1586550871.933,-36.133,35.156,31.738,-5.371,55.664
1586550871.937,7.324,32.227,30.273,14.648,25.879
1586550871.941,92.285,28.32,28.32,54.199,-0.488
1586550871.945,55.664,29.785,30.273,46.387,-36.621
1586550871.949,-38.574,31.738,32.227,8.789,-27.832
1586550871.953,-10.742,33.203,31.25,8.301,5.859
1586550871.957,88.867,35.156,28.32,49.316,20.02
1586550871.961,98.145,33.691,29.297,64.941,6.836
1586550871.965,-20.996,30.273,31.25,11.719,19.531
1586550871.969,-31.738,27.832,33.691,0,22.461
1586550871.973,56.152,27.832,34.668,36.133,17.09
1586550871.976,104.004,29.785,33.203,56.152,12.207
1586550871.98,10.742,29.297,34.668,21.484,27.344
1586550871.984,-33.203,32.227,33.203,-3.418,20.02
1586550871.988,38.574,30.273,32.227,26.855,-22.461
1586550871.992,114.746,27.832,33.203,65.43,-7.324
1586550871.996,50.781,32.715,33.203,43.945,5.859
1586550872,-27.344,34.18,32.715,10.742,-42.969
1586550872.004,0.977,33.203,31.738,20.02,-30.762
1586550872.008,78.613,28.32,34.18,55.664,55.176
1586550872.012,70.801,23.926,31.738,53.711,79.102
1586550872.015,-32.715,29.785,30.762,11.23,44.922
1586550872.019,-15.625,35.645,30.273,13.184,-0.488
1586550872.023,78.125,35.156,28.809,55.176,8.789
1586550872.027,98.145,33.691,35.645,69.336,43.457
1586550872.031,-5.859,31.738,37.109,28.32,36.133
1586550872.035,-23.926,30.762,33.203,13.672,32.227
1586550872.039,55.664,28.32,28.32,43.457,40.527
1586550872.043,104.98,29.297,26.855,71.289,29.297
1586550872.047,20.996,29.785,33.203,37.598,2.441
1586550872.051,-36.133,27.832,31.738,2.93,7.324
1586550872.055,24.414,28.32,27.344,24.902,31.25
1586550872.058,107.422,26.367,28.32,64.941,27.832
1586550872.062,60.059,24.902,30.762,46.387,-16.113
1586550872.066,-27.832,25.879,30.762,5.859,3.906
1586550872.07,5.859,26.367,28.809,18.066,-6.348
1586550872.074,91.797,27.344,29.785,53.711,-20.996
1586550872.078,81.543,28.32,30.273,48.828,53.223
1586550872.082,-20.02,28.809,27.344,5.859,34.18
1586550872.086,-16.602,27.344,28.809,6.836,-13.672
1586550872.09,71.289,28.32,30.762,47.363,18.066
1586550872.094,97.656,27.832,29.785,63.965,38.574
1586550872.098,-0.488,24.414,31.738,24.902,56.152
1586550872.101,-22.461,31.25,31.738,4.395,5.859
1586550872.105,53.223,38.574,31.25,30.762,47.852
1586550872.109,114.258,35.156,27.832,60.547,47.363
1586550872.113,28.809,32.715,26.855,25.879,45.898
1586550872.117,-44.922,30.273,28.32,-8.301,70.801
1586550872.121,9.766,29.785,29.297,14.16,44.922
1586550872.125,90.82,27.832,25.391,48.828,47.363
1586550872.129,57.617,26.855,26.367,41.992,57.129
1586550872.133,-31.25,28.809,32.715,1.465,46.387
1586550872.137,-6.348,30.273,28.32,7.812,3.906
1586550872.14,81.543,31.25,25.879,47.363,0
1586550872.144,80.078,29.785,29.297,50.781,18.066
1586550872.148,-20.02,29.297,27.344,5.859,17.578
1586550872.152,-25.391,31.25,25.391,-2.441,34.18
1586550872.156,59.082,31.738,28.32,37.109,39.062
1586550872.16,94.727,30.273,26.855,56.152,22.949
1586550872.164,2.441,31.25,26.367,22.461,39.551
1586550872.168,-36.621,31.25,27.344,0.977,16.602
1586550872.172,30.762,32.715,26.855,20.02,45.898
1586550872.176,107.422,34.18,24.414,55.176,62.988
1586550872.18,43.457,36.621,26.367,35.645,26.855
1586550872.183,-32.227,30.762,27.344,2.93,-45.898
1586550872.187,8.301,21.973,28.32,20.508,-86.914
1586550872.191,100.098,27.832,28.32,60.059,38.574
1586550872.195,69.824,30.762,31.738,53.223,60.547
1586550872.199,-44.922,26.855,33.203,7.324,-13.672
1586550872.203,-18.555,26.367,28.32,4.883,17.578
1586550872.207,78.613,23.926,26.855,42.48,80.078
1586550872.211,88.867,22.949,28.32,54.199,50.293
1586550872.215,-19.043,26.367,28.809,9.277,23.926
1586550872.219,-28.809,27.344,28.32,-3.906,66.895
1586550872.223,55.664,26.367,30.273,27.344,69.336
1586550872.226,98.145,23.926,25.391,50.293,72.754
1586550872.23,8.301,26.855,23.438,16.113,66.895
1586550872.234,-38.086,28.32,28.809,-11.23,51.27
1586550872.238,20.508,27.832,31.738,14.16,22.949
1586550872.242,103.027,27.344,30.273,48.34,-15.137
1586550872.246,56.641,27.832,30.273,34.18,-27.344
1586550872.25,-25.879,28.32,30.273,4.883,9.766
1586550872.254,6.836,26.855,30.273,13.184,52.734
1586550872.258,91.309,28.809,29.785,51.758,85.449
1586550872.262,80.078,27.832,28.809,54.199,69.824
1586550872.265,-23.926,25.879,27.344,8.789,-8.789
1586550872.269,-19.531,27.832,25.391,4.883,-26.855
1586550872.273,73.242,24.902,27.832,43.945,26.855
1586550872.277,102.539,21.973,29.297,56.641,15.137
1586550872.281,-6.348,28.809,28.32,13.672,1.953
1586550872.285,-28.809,33.691,27.832,2.441,34.18
1586550872.289,50.781,29.297,30.762,35.156,27.832
1586550872.293,112.305,28.32,28.809,63.965,57.617
1586550872.297,25.879,31.738,25.879,34.18,48.828
1586550872.301,-41.016,31.738,25.879,4.395,22.461
1586550872.305,21.973,30.762,27.832,20.02,41.504
1586550872.308,108.887,36.133,30.273,55.664,24.902
1586550872.312,58.594,38.086,29.297,45.898,26.367
1586550872.316,-37.109,33.691,26.367,5.371,14.648
1586550872.32,2.441,31.738,25.879,6.836,15.137
1586550872.324,91.309,33.691,28.32,49.316,7.812
1586550872.328,83.008,34.18,30.762,54.199,44.434
1586550872.332,-14.648,32.715,31.738,8.789,95.703
1586550872.336,-16.113,33.691,27.344,1.465,57.617
1586550872.34,67.871,33.203,25.391,36.621,46.387
1586550872.344,102.051,35.645,28.32,62.988,38.574
1586550872.348,-0.977,33.203,31.25,25.879,41.504
1586550872.351,-32.715,27.832,30.762,-3.418,28.32
1586550872.355,44.434,28.809,26.367,19.043,-7.812
1586550872.359,112.305,28.32,26.855,61.035,26.855
1586550872.363,36.621,29.297,31.738,40.039,69.336
1586550872.367,-35.645,31.25,32.227,3.906,-0.488
1586550872.371,16.113,26.855,29.297,22.461,-53.711
1586550872.375,102.051,24.902,28.809,61.035,10.254
1586550872.379,69.336,32.227,30.762,48.828,18.066
1586550872.383,-28.32,35.645,29.785,-1.465,-32.227
1586550872.387,-11.23,37.109,26.855,-0.977,-18.555
1586550872.39,72.266,33.691,23.438,37.109,36.621
1586550872.394,85.938,31.25,23.438,46.875,55.176
1586550872.398,-15.137,33.203,25.879,7.324,26.367
1586550872.402,-23.438,30.762,28.32,-7.324,5.371
1586550872.406,59.082,30.273,29.785,27.832,-8.789
1586550872.41,104.004,32.715,27.344,50.781,39.551
1586550872.414,17.578,30.273,28.809,8.789,-1.953
1586550872.418,-24.902,29.785,30.762,-6.348,-22.461
1586550872.422,33.203,31.738,27.344,22.949,32.715
1586550872.426,94.238,33.203,24.902,55.664,10.742
1586550872.43,26.367,33.691,26.367,37.598,28.32
1586550872.433,-46.875,33.691,27.344,2.441,36.133
1586550872.437,3.418,34.18,29.785,15.137,20.508
1586550872.441,93.75,33.203,28.809,53.223,66.406
1586550872.445,67.383,32.715,27.344,44.922,55.176
1586550872.449,-30.273,33.691,28.32,0.488,9.766
1586550872.453,-11.23,32.227,25.391,9.277,-0.488
1586550872.457,72.754,27.832,24.414,40.039,24.902
1586550872.461,96.68,27.344,25.879,47.852,78.613
1586550872.465,-8.301,28.809,27.832,10.254,40.039
1586550872.469,-33.203,28.32,27.344,-4.395,102.051
1586550872.473,51.27,29.297,28.32,32.227,69.336
1586550872.476,102.539,31.25,27.832,58.594,23.926
1586550872.48,16.602,28.809,26.855,23.438,2.93
1586550872.484,-36.133,24.902,25.391,-1.953,-30.762
1586550872.488,24.414,27.832,25.391,19.043,-20.02
1586550872.492,102.539,31.25,24.902,49.805,-38.086
1586550872.496,46.387,30.762,27.344,30.762,0.977
1586550872.5,-34.668,30.762,30.762,-4.883,23.438
1586550872.504,7.812,32.227,27.344,6.836,17.09
1586550872.508,91.309,33.203,26.855,47.363,54.688
1586550872.512,74.219,32.715,34.18,48.34,36.133
1586550872.515,-37.598,32.715,34.18,3.418,3.906
1586550872.519,-27.832,35.156,27.832,-3.418,72.266
1586550872.523,62.5,34.668,25.391,29.785,40.039
1586550872.527,87.891,31.25,26.367,52.246,-4.883
1586550872.531,-2.93,29.785,28.809,14.16,15.137
1586550872.535,-31.25,27.344,29.785,-10.742,12.695
1586550872.539,42.48,27.344,28.32,23.438,85.449
1586550872.543,108.887,30.762,27.832,60.059,104.492
1586550872.547,25.391,29.785,30.273,25.879,59.082
1586550872.551,-34.18,30.273,29.785,0.488,59.57
1586550872.555,22.461,36.133,23.926,20.996,25.879
1586550872.558,104.004,34.668,22.949,57.129,0
1586550872.562,66.406,31.25,28.32,46.875,31.738
1586550872.566,-31.738,29.297,29.785,4.395,31.738
1586550872.57,-9.277,26.855,30.762,13.184,55.176
1586550872.574,83.008,23.438,31.738,56.641,80.566
1586550872.578,82.031,23.926,30.762,61.035,46.387
1586550872.582,-26.855,29.785,30.273,12.695,23.438
1586550872.586,-26.855,31.25,29.297,4.395,0.977
1586550872.59,58.594,30.762,27.832,38.086,85.449
1586550872.594,99.609,31.25,29.297,64.941,75.684
1586550872.598,0,30.762,30.273,29.297,6.348
1586550872.601,-32.227,30.273,27.344,1.465,91.309
1586550872.605,48.34,31.25,27.832,27.344,56.641
1586550872.609,114.258,30.273,31.25,58.105,34.668
1586550872.613,38.574,27.344,32.715,35.645,42.969
1586550872.617,-34.668,29.297,30.273,4.883,21.973
1586550872.621,20.02,29.785,29.297,19.531,24.414
1586550872.625,107.422,28.32,29.297,57.129,33.691
1586550872.629,78.125,31.738,31.25,48.828,33.203
1586550872.633,-21.484,34.18,29.297,12.695,12.695
1586550872.637,-0.977,31.25,25.391,19.043,19.043
1586550872.64,86.914,27.832,27.344,55.664,39.551
1586550872.644,98.145,32.227,29.297,65.43,27.344
1586550872.648,-5.859,34.18,29.297,18.555,36.133
1586550872.652,-18.066,33.691,26.855,3.418,24.414
1586550872.656,67.383,33.203,26.367,32.715,-48.828
1586550872.66,112.305,32.227,30.762,61.035,12.207
1586550872.664,15.625,34.18,32.715,36.133,33.691
1586550872.668,-35.645,36.133,30.273,0.977,41.504
1586550872.672,41.992,33.691,28.809,20.508,63.965
1586550872.676,116.699,33.691,29.297,66.895,47.852
1586550872.68,41.504,36.621,30.273,49.805,41.992
1586550872.683,-44.434,36.621,31.25,7.812,-17.09
1586550872.687,-4.883,35.156,29.297,15.625,29.297
1586550872.691,84.961,32.715,29.785,55.176,27.344
1586550872.695,70.801,30.273,33.203,52.246,-4.883
1586550872.699,-32.227,27.344,33.691,7.812,-22.461
1586550872.703,-19.531,29.785,32.227,4.883,-16.602
1586550872.707,66.406,32.715,26.367,40.039,41.016
1586550872.711,96.68,34.668,23.438,59.082,59.082
1586550872.715,-2.441,32.227,25.879,16.113,0
1586550872.719,-37.598,28.32,27.832,-2.93,-33.203
1586550872.723,43.945,30.273,27.832,31.25,32.227
1586550872.726,109.863,28.32,24.414,60.059,85.938
1586550872.73,23.438,26.855,25.879,36.621,71.289
1586550872.734,-39.062,30.273,29.297,7.324,44.434
1586550872.738,31.25,28.809,29.785,23.438,20.508
1586550872.742,115.723,28.32,29.297,62.012,68.359
1586550872.746,60.059,30.762,31.25,50.293,67.871
1586550872.75,-33.203,30.273,31.738,6.836,-19.043
1586550872.754,0,28.809,29.297,10.742,0.977
1586550872.758,97.656,30.273,28.32,55.664,44.434
1586550872.762,100.586,31.25,27.344,63.477,45.41
1586550872.765,-11.23,29.785,29.785,20.02,11.719
1586550872.769,-25.879,27.344,31.25,3.906,9.766
1586550872.773,57.129,26.367,28.809,29.785,40.039
1586550872.777,94.238,25.879,27.344,53.711,66.895
1586550872.781,-6.348,26.855,29.297,13.672,34.18
1586550872.785,-34.18,27.344,28.32,-13.184,-75.195
1586550872.789,48.34,29.297,24.414,18.066,-60.059
1586550872.793,113.281,28.32,26.855,60.547,7.812
1586550872.797,36.621,27.832,26.367,40.039,48.828
1586550872.801,-36.621,29.785,27.832,4.395,-1.953
1586550872.805,24.414,33.203,28.32,22.461,-57.129
1586550872.808,113.281,35.645,26.855,63.965,-28.32
1586550872.812,68.359,32.227,30.762,56.152,69.824
1586550872.816,-24.414,30.273,29.297,11.719,92.773
1586550872.82,4.883,28.32,27.344,16.113,49.805
1586550872.824,92.773,28.32,29.297,52.246,-22.949
1586550872.828,103.027,30.762,29.785,60.547,-27.832
1586550872.832,-0.488,31.25,32.715,23.926,19.531
1586550872.836,-19.531,27.344,32.227,11.719,0
1586550872.84,61.523,26.367,28.809,41.504,8.789
1586550872.844,105.957,29.297,28.32,63.477,46.875
1586550872.848,11.719,32.715,29.297,25.391,8.789
1586550872.851,-26.855,34.18,32.227,5.859,-17.09
1586550872.855,34.18,31.738,32.227,32.227,20.508
1586550872.859,107.422,31.25,28.32,65.918,39.062
1586550872.863,56.152,30.273,28.32,49.316,82.031
1586550872.867,-22.461,30.762,31.25,11.719,31.25
1586550872.871,19.043,28.32,31.738,23.926,17.578
1586550872.875,101.074,23.438,30.273,57.617,121.094
1586550872.879,72.754,25.879,27.344,49.316,113.281
1586550872.883,-29.785,24.902,26.855,5.371,73.73
1586550872.887,-18.066,25.391,26.855,5.371,54.688
1586550872.89,70.801,25.391,29.785,48.828,-8.301
1586550872.894,94.727,20.02,36.133,69.336,-14.648
1586550872.898,-13.184,21.484,29.785,20.996,1.953
1586550872.902,-35.645,23.438,22.949,1.465,-19.043
1586550872.906,51.758,16.113,28.809,32.227,1.953
1586550872.91,105.957,11.719,31.25,62.012,26.367
1586550872.914,19.043,21.484,32.227,34.18,-12.207
1586550872.918,-34.668,28.32,27.344,1.465,13.672
1586550872.922,26.367,26.855,25.879,18.555,0.488
1586550872.926,98.633,26.855,28.809,48.34,25.391
1586550872.93,48.34,27.832,31.738,42.969,18.555
1586550872.933,-19.531,26.367,34.18,8.301,-12.695
1586550872.937,8.301,25.391,31.738,7.324,29.785
1586550872.941,85.449,25.879,28.809,41.992,23.438
1586550872.945,82.031,30.762,32.227,50.781,75.684
1586550872.949,-21.973,29.785,35.645,5.859,54.199
1586550872.953,-13.672,25.879,29.297,-2.441,6.836
1586550872.957,75.684,26.367,24.414,45.898,70.801
1586550872.961,108.887,26.367,25.879,55.664,95.703
1586550872.965,8.301,28.809,26.855,4.395,94.238
1586550872.969,-21.484,30.762,25.879,-8.789,45.41
1586550872.973,61.523,26.367,23.926,19.531,-7.812
1586550872.976,115.234,27.832,23.926,40.527,-19.531
1586550872.98,29.297,31.738,26.367,21.484,5.371
1586550872.984,-30.273,29.297,26.855,-3.906,54.199
1586550872.988,23.438,27.832,24.902,6.348,75.195
1586550872.992,102.051,29.297,25.879,46.875,46.387
1586550872.996,56.641,29.785,27.344,41.504,20.508
1586550873,-37.598,28.32,27.344,-1.465,47.852
1586550873.004,-8.301,27.832,28.809,1.465,28.32
1586550873.008,79.102,28.809,27.832,39.551,-16.602
1586550873.012,77.637,28.809,27.344,50.781,27.832
1586550873.015,-25.391,30.762,27.344,12.695,39.551
1586550873.019,-24.902,27.344,27.832,0.977,13.672
1586550873.023,63.965,25.879,30.273,36.133,33.203
1586550873.027,102.539,32.715,28.809,57.617,45.898
1586550873.031,2.441,35.645,27.344,20.508,47.852
1586550873.035,-36.621,32.227,25.391,0.488,46.387
1586550873.039,35.156,33.203,27.344,27.832,35.645
1586550873.043,106.934,36.133,28.809,61.035,55.176
1586550873.047,34.668,35.156,30.273,34.668,27.344
1586550873.051,-41.504,35.645,32.227,-3.418,-17.578
1586550873.055,16.113,33.203,31.25,14.648,35.645
1586550873.058,103.516,29.785,31.738,53.711,25.879
1586550873.062,68.359,29.785,33.203,47.852,-11.23
1586550873.066,-27.832,32.227,33.203,11.23,1.953
1586550873.07,-6.836,31.738,30.273,11.719,28.809
1586550873.074,81.055,32.227,29.297,48.828,67.871
1586550873.078,91.309,36.621,28.32,59.57,81.055
1586550873.082,-7.324,35.645,29.785,21.484,81.055
1586550873.086,-15.137,34.668,32.227,14.16,21.973
1586550873.09,62.988,36.133,29.785,41.016,-1.465
1586550873.094,107.91,33.691,31.25,67.383,35.645
1586550873.098,11.23,33.691,33.691,35.156,55.664
1586550873.101,-38.086,31.738,28.809,7.324,31.25
1586550873.105,32.715,29.785,27.832,32.227,36.621
1586550873.109,105.957,32.227,31.738,65.43,41.016
1586550873.113,42.48,31.738,29.785,44.434,44.922
1586550873.117,-35.156,28.809,28.809,3.418,17.09
1586550873.121,6.836,29.297,30.762,11.719,-60.059
1586550873.125,89.355,31.738,29.785,56.641,3.906
1586550873.129,68.848,33.203,28.32,57.617,31.25
1586550873.133,-31.25,32.227,30.273,8.301,-16.602
1586550873.137,-21.973,31.738,28.32,5.859,15.137
1586550873.14,64.453,27.344,24.414,48.34,27.832
1586550873.144,94.727,22.949,25.391,64.941,44.922
1586550873.148,-5.371,30.273,26.367,24.902,46.387
1586550873.152,-30.762,32.715,26.855,7.324,49.805
1586550873.156,47.852,30.762,24.902,34.18,34.668
1586550873.16,110.352,30.762,22.949,65.43,21.973
1586550873.164,25.879,28.809,27.832,37.109,27.344
1586550873.168,-38.086,27.832,27.832,-1.465,-20.02
1586550873.172,25.391,32.715,27.344,19.043,70.801
1586550873.176,104.98,32.227,27.832,59.57,64.453
1586550873.18,50.293,26.855,27.832,38.574,31.738
1586550873.183,-36.133,28.32,28.32,2.441,58.594
1586550873.187,-1.953,30.762,27.832,15.625,-37.598
1586550873.191,84.961,25.879,28.809,54.199,24.902
1586550873.195,78.125,24.902,31.25,59.57,52.246
1586550873.199,-18.555,34.668,27.832,20.02,32.715
1586550873.203,-15.137,38.574,24.414,10.742,-9.766
1586550873.207,61.523,32.715,29.785,36.621,-21.484
1586550873.211,94.727,29.785,30.762,59.082,52.734
1586550873.215,2.93,29.785,27.344,25.879,31.25
1586550873.219,-23.926,31.25,31.738,13.672,83.008
1586550873.223,53.223,34.18,28.809,39.062,71.777
1586550873.226,116.699,29.785,20.508,59.082,-11.719
1586550873.23,36.621,28.32,26.855,34.18,-21.973
1586550873.234,-34.18,33.203,31.25,4.883,-39.551
1586550873.238,16.602,34.18,29.297,22.949,-23.438
1586550873.242,104.492,34.668,28.809,65.918,9.277
1586550873.246,72.754,35.156,30.762,60.547,-2.93
1586550873.25,-20.508,35.156,33.203,27.832,12.695
1586550873.254,4.883,35.156,32.715,27.832,-34.668
1586550873.258,87.891,34.18,30.273,55.664,-7.812
1586550873.262,88.379,35.645,31.738,62.988,46.387
1586550873.265,-8.301,37.598,30.273,17.578,33.691
1586550873.269,-11.23,39.551,29.785,1.465,46.875
1586550873.273,65.918,38.574,27.344,35.645,49.805
1586550873.277,109.375,37.109,19.043,65.43,37.109
1586550873.281,11.719,33.203,20.996,24.902,20.996
1586550873.285,-34.18,30.762,23.438,-2.93,-19.531
1586550873.289,37.109,36.621,24.414,19.043,-51.758
1586550873.293,102.539,37.598,30.273,51.758,9.277
1586550873.297,36.621,32.227,32.227,30.273,40.039
1586550873.301,-33.691,30.273,31.25,-7.324,38.086
1586550873.305,10.254,32.227,31.738,6.348,41.504
1586550873.308,93.75,30.273,29.785,45.898,33.691
1586550873.312,62.012,26.367,28.32,40.527,42.969
1586550873.316,-42.48,27.344,27.344,-5.859,13.672
1586550873.32,-21.973,32.227,28.809,-5.371,52.246
1586550873.324,67.871,31.25,28.32,31.25,25.879
1586550873.328,84.961,30.273,25.879,45.41,-57.617
1586550873.332,-18.555,32.715,25.879,7.324,-23.438
1586550873.336,-30.762,32.227,26.367,-2.93,-24.414
1586550873.34,47.852,30.762,29.297,27.344,-12.207
1586550873.344,99.121,31.25,29.785,53.711,12.695
1586550873.348,19.531,32.715,29.785,31.25,12.695
1586550873.351,-30.762,32.227,27.344,6.348,18.555
1586550873.355,32.715,26.855,27.832,26.367,29.297
1586550873.359,104.004,26.855,24.902,60.059,69.824
1586550873.363,39.551,29.785,23.926,41.992,52.734
1586550873.367,-43.457,25.879,28.32,5.371,23.438
1586550873.371,2.93,26.367,26.855,11.719,68.848
1586550873.375,88.867,29.297,24.414,44.434,73.73
1586550873.379,70.801,27.344,26.855,48.828,14.16
1586550873.383,-34.18,24.414,29.297,5.859,35.645
1586550873.387,-25.391,24.414,26.855,0.488,71.289
1586550873.39,62.012,26.367,26.367,35.645,72.754
1586550873.394,93.75,29.297,28.809,52.246,33.203
1586550873.398,-0.488,30.762,26.367,20.508,15.625
1586550873.402,-29.297,26.855,24.902,9.766,0
1586550873.406,48.34,28.809,24.414,35.645,7.324
1586550873.41,114.746,34.668,23.926,63.477,33.203
1586550873.414,33.203,35.645,25.391,31.738,3.906
1586550873.418,-29.297,33.203,25.879,-5.859,-3.906
1586550873.422,34.18,32.227,22.949,15.137,-7.324
1586550873.426,111.816,35.645,23.926,54.199,13.184
1586550873.43,60.547,36.133,26.855,40.527,9.766
1586550873.433,-28.809,34.668,25.391,3.906,-33.691
1586550873.437,6.836,33.691,23.926,8.789,42.969
1586550873.441,92.773,33.691,24.414,47.852,40.039
1586550873.445,84.473,34.18,23.438,55.176,-0.977
1586550873.449,-16.602,33.203,21.973,10.254,3.906
1586550873.453,-13.184,35.156,22.949,2.93,-5.859
1586550873.457,77.637,36.621,25.391,38.086,48.34
1586550873.461,115.234,34.668,26.367,62.988,81.543
1586550873.465,22.461,34.668,27.344,31.25,2.93
1586550873.469,-14.648,33.203,28.32,3.418,-1.953
1586550873.473,53.711,30.273,31.25,27.832,4.395
1586550873.476,120.605,31.25,32.715,67.871,6.836
1586550873.48,34.668,31.25,32.715,41.504,45.898
1586550873.484,-38.574,29.297,30.762,8.789,89.844
1586550873.488,21.484,33.691,25.391,26.855,85.938
1586550873.492,113.77,35.645,22.949,65.918,67.383
1586550873.496,72.754,30.762,28.809,51.758,37.109
1586550873.5,-42.969,25.391,31.738,-2.441,48.828
1586550873.504,-17.09,23.926,31.738,0.977,64.453
1586550873.508,75.684,24.414,35.645,42.48,-13.184
1586550873.512,81.543,20.508,38.086,50.293,14.16
1586550873.515,-21.973,20.508,39.551,11.23,32.715
1586550873.519,-34.18,23.438,38.086,4.883,35.156
1586550873.523,48.34,23.926,36.133,34.18,13.672
1586550873.527,92.773,24.414,34.18,54.199,14.16
1586550873.531,3.906,23.926,33.691,23.926,98.633
1586550873.535,-40.039,20.996,36.621,-5.859,98.145
1586550873.539,26.367,20.508,36.133,17.09,46.875
1586550873.543,101.562,21.484,32.715,59.57,61.035
1586550873.547,32.715,19.043,36.133,40.039,101.562
1586550873.551,-58.105,16.602,37.109,-1.465,92.773
1586550873.555,-15.137,18.066,31.738,13.672,55.176
1586550873.558,75.195,17.578,29.785,49.805,51.27
1586550873.562,56.641,18.555,31.25,46.875,48.34
1586550873.566,-48.34,23.438,32.715,9.766,18.066
1586550873.57,-32.227,22.949,29.297,2.93,-8.789
1586550873.574,60.547,22.949,24.414,32.715,-11.23
1586550873.578,81.055,26.367,29.297,51.758,33.203
1586550873.582,-15.625,27.832,31.25,13.184,46.875
1586550873.586,-33.691,27.344,27.344,-9.766,55.664
1586550873.59,46.875,28.32,28.32,20.996,34.18
1586550873.594,106.445,28.809,28.809,58.105,2.93
1586550873.598,17.09,26.367,29.297,31.738,40.527
1586550873.601,-47.852,27.344,26.855,-3.418,31.738
1586550873.605,17.09,32.227,22.949,17.09,4.883
1586550873.609,101.074,30.273,25.879,59.57,39.062
1586550873.613,54.199,28.809,27.344,41.992,86.426
1586550873.617,-31.25,30.762,27.344,0.977,25.879
1586550873.621,-2.93,29.785,30.273,9.277,-0.488
1586550873.625,85.449,29.785,29.785,47.363,11.719
1586550873.629,81.543,29.785,26.855,53.223,25.391
1586550873.633,-19.531,25.391,24.414,14.648,31.738
1586550873.637,-15.625,23.926,22.949,5.371,12.207
1586550873.64,74.707,29.297,23.926,41.504,18.066
1586550873.644,104.98,33.203,28.809,61.523,53.711
1586550873.648,2.441,34.18,29.297,21.484,49.805
1586550873.652,-24.902,32.227,27.344,6.348,25.391
1586550873.656,53.223,33.691,32.227,35.645,63.965
1586550873.66,110.84,32.715,33.203,62.988,69.336
1586550873.664,28.809,29.297,33.203,42.48,44.434
1586550873.668,-40.039,27.832,32.227,7.324,18.555
1586550873.672,16.602,26.855,29.297,17.578,2.441
1586550873.676,100.586,25.391,30.762,55.176,51.758
1586550873.68,52.734,23.926,33.203,41.992,44.922
1586550873.683,-45.41,23.926,33.691,0.488,22.949
1586550873.687,-15.137,25.391,35.156,0.488,42.969
1586550873.691,73.242,27.832,33.203,35.156,53.223
1586550873.695,76.172,29.297,30.273,47.852,45.898
1586550873.699,-28.809,27.344,32.715,4.883,17.09
1586550873.703,-39.062,26.855,32.227,-4.883,30.273
1586550873.707,46.387,25.879,31.25,29.297,14.648
1586550873.711,90.82,26.367,31.25,52.246,-9.277
1586550873.715,-2.93,29.785,30.273,14.648,-16.602
1586550873.719,-48.828,27.344,32.227,-9.766,36.621
1586550873.723,25.879,24.414,29.297,17.578,41.016
1586550873.726,124.023,29.297,22.461,61.035,4.883
1586550873.73,55.176,28.809,27.832,40.039,-1.465
1586550873.734,-58.105,22.461,36.621,-14.648,14.648
1586550873.738,-14.648,20.02,36.621,0,-12.207
1586550873.742,83.984,17.578,34.18,51.758,-1.465
1586550873.746,53.711,14.648,36.621,47.363,23.438
1586550873.75,-46.875,13.672,41.016,0.977,-13.672
1586550873.754,-22.949,12.695,42.48,0,39.062
1586550873.758,61.035,12.695,42.48,28.809,35.156
1586550873.762,74.219,13.184,44.922,39.062,43.945
1586550873.765,-27.832,9.766,48.34,5.371,47.852
1586550873.769,-44.434,14.16,44.434,-4.395,21.484
1586550873.773,40.039,20.508,38.086,29.785,16.113
1586550873.777,94.238,20.996,41.016,61.523,21.484
1586550873.781,9.277,21.484,44.922,34.18,1.465
1586550873.785,-41.504,16.602,41.504,1.465,-31.25
1586550873.789,24.414,18.555,42.48,18.066,17.09
1586550873.793,108.887,24.414,42.969,56.152,76.66
1586550873.797,52.734,25.879,41.504,38.086,40.039
1586550873.801,-35.156,27.832,39.062,1.953,-29.785
1586550873.805,2.441,26.367,37.109,17.09,-13.672
1586550873.808,91.309,23.438,37.109,54.199,39.062
1586550873.812,82.031,27.832,35.645,53.711,98.633
1586550873.816,-26.367,28.809,34.668,7.812,72.266
1586550873.82,-14.16,27.344,34.668,3.418,38.086
1586550873.824,80.566,28.809,36.133,44.922,44.434
1586550873.828,102.539,25.879,36.621,57.129,48.828
1586550873.832,0.488,28.32,35.156,19.043,-5.371
1586550873.836,-27.832,31.738,32.715,3.418,-17.09
1586550873.84,47.363,27.832,32.227,24.902,29.297
1586550873.844,108.398,26.367,33.691,58.105,-4.883
1586550873.848,21.484,32.715,32.715,32.227,-1.465
1586550873.851,-43.945,35.645,33.203,-0.977,20.996
1586550873.855,17.09,34.18,30.762,18.066,-1.465
1586550873.859,98.633,33.691,25.391,47.852,27.344
1586550873.863,56.152,33.691,29.785,31.738,22.949
1586550873.867,-31.738,33.203,30.762,0,-12.695
1586550873.871,1.465,33.203,27.344,14.16,2.441
1586550873.875,84.961,31.738,29.297,52.246,82.52
1586550873.879,77.637,31.25,31.738,52.246,100.098
1586550873.883,-22.949,30.273,31.738,11.719,41.016
1586550873.887,-18.555,29.297,32.715,5.371,35.156
1586550873.89,67.871,29.297,31.738,40.039,43.457
1586550873.894,101.562,27.832,27.344,59.082,83.984
1586550873.898,0.488,27.344,26.367,24.414,70.801
1586550873.902,-37.598,26.855,28.32,5.859,-10.742
1586550873.906,41.992,26.367,27.832,25.879,1.953
1586550873.91,114.258,26.855,28.32,54.199,14.648
1586550873.914,33.691,24.902,29.785,31.25,-6.348
1586550873.918,-39.551,23.438,31.738,-0.488,-1.465
1586550873.922,12.695,28.32,30.762,17.09,-16.602
1586550873.926,98.145,30.273,28.32,55.176,11.719
1586550873.93,64.941,30.273,27.832,46.387,51.758
1586550873.933,-29.297,32.227,28.32,6.836,34.668
1586550873.937,-5.371,30.273,28.809,12.207,5.371
1586550873.941,83.496,28.809,27.344,47.363,47.852
1586550873.945,96.191,33.203,27.344,56.641,59.082
1586550873.949,-6.348,34.18,30.273,16.113,6.348
1586550873.953,-21.484,33.691,30.273,3.906,-2.441
1586550873.957,59.57,31.738,27.344,38.086,45.898
1586550873.961,108.887,30.762,29.785,64.941,94.238
1586550873.965,15.625,31.25,33.203,25.879,67.383
1586550873.969,-32.227,28.809,32.715,-2.441,23.438
1586550873.973,32.715,27.344,28.809,25.391,5.371
1586550873.976,104.492,26.367,29.785,63.477,44.434
1586550873.98,41.504,28.809,33.691,45.898,60.547
1586550873.984,-36.133,29.785,30.273,6.836,14.16
1586550873.988,5.859,28.32,27.344,10.254,39.551
1586550873.992,92.773,29.297,31.738,45.898,121.094
1586550873.996,73.73,30.273,33.203,51.27,53.711
1586550874,-22.461,28.809,34.18,13.672,34.668
1586550874.004,-5.371,28.809,34.18,7.812,24.414
1586550874.008,77.148,28.32,33.203,41.504,37.109
1586550874.012,95.703,27.832,31.738,60.059,73.242
1586550874.015,-11.719,30.762,32.227,16.602,-0.488
1586550874.019,-37.598,30.273,31.738,-0.488,1.465
1586550874.023,46.387,26.855,28.809,33.691,36.133
1586550874.027,103.027,28.809,30.273,60.547,52.734
1586550874.031,14.16,30.273,30.762,27.832,46.387
1586550874.035,-41.016,31.25,30.273,-2.93,-4.395
1586550874.039,21.973,34.668,28.32,20.508,3.906
1586550874.043,107.422,32.227,26.367,61.035,78.613
1586550874.047,52.734,31.25,25.879,39.062,65.43
1586550874.051,-35.156,29.297,28.809,-1.465,48.828
1586550874.055,-0.977,24.902,30.762,6.348,-5.371
1586550874.058,86.914,27.344,30.762,46.875,-6.836
1586550874.062,78.125,28.809,33.691,54.688,22.949
1586550874.066,-31.25,26.367,33.203,8.301,8.301
1586550874.07,-28.32,24.414,30.762,2.441,55.176
1586550874.074,62.5,24.902,29.297,37.598,49.316
1586550874.078,95.703,28.32,29.297,51.27,-13.184
1586550874.082,-3.418,27.344,31.738,14.16,-5.859
1586550874.086,-31.738,27.344,30.273,1.953,-0.488
1586550874.09,43.945,32.715,25.879,29.785,-0.977
1586550874.094,110.352,34.18,26.855,56.641,17.09
1586550874.098,35.156,35.645,32.227,32.715,20.508
1586550874.101,-29.785,34.668,30.273,1.953,-13.184
1586550874.105,21.484,33.203,26.855,23.438,15.137
1586550874.109,100.586,32.227,30.273,60.059,50.293
1586550874.113,57.129,33.203,33.203,43.945,20.996
1586550874.117,-31.738,35.156,34.18,10.742,26.367
1586550874.121,0,33.203,33.203,15.625,33.691
1586550874.125,82.031,33.203,30.273,42.969,21.973
1586550874.129,82.52,29.297,30.762,50.293,3.906
1586550874.133,-22.461,26.855,28.32,6.836,85.938
1586550874.137,-24.902,32.715,27.832,-0.977,81.055
1586550874.14,60.059,35.645,28.809,40.527,31.738
1586550874.144,93.75,33.203,27.832,62.012,84.473
1586550874.148,-0.977,30.273,28.32,20.508,9.766
1586550874.152,-39.062,30.273,27.832,-6.348,6.836
1586550874.156,37.598,30.762,26.367,20.996,54.688
1586550874.16,109.863,31.738,22.949,55.664,55.176
1586550874.164,35.645,29.785,23.926,31.25,1.953
1586550874.168,-39.551,26.855,26.367,-2.441,-30.273
1586550874.172,12.207,29.297,25.391,13.184,12.695
1586550874.176,101.562,28.809,27.344,51.27,13.184
1586550874.18,71.777,28.809,29.297,49.316,-30.273
1586550874.183,-31.25,29.785,30.762,11.23,-23.438
1586550874.187,-14.16,25.391,33.203,13.184,8.789
1586550874.191,77.637,25.879,31.738,50.293,24.414
1586550874.195,94.238,30.273,30.762,57.617,17.09
1586550874.199,-12.207,30.273,33.691,9.766,8.789
1586550874.203,-22.949,23.438,35.156,-3.906,47.363
1586550874.207,63.965,24.414,33.691,36.621,69.336
1586550874.211,106.445,34.18,29.297,52.734,71.777
1586550874.215,16.113,37.598,26.367,11.719,31.738
1586550874.219,-32.715,39.062,23.926,-11.719,18.066
1586550874.223,25.879,40.527,22.461,7.812,64.453
1586550874.226,98.633,41.016,20.996,40.039,49.805
1586550874.23,36.133,43.457,19.043,17.09,34.668
1586550874.234,-48.34,36.621,20.996,-18.066,37.109
1586550874.238,-2.93,33.691,16.602,0,48.34
1586550874.242,85.938,41.016,14.16,41.992,92.285
1586550874.246,69.336,42.48,17.578,40.527,37.109
1586550874.25,-31.738,41.504,18.555,-2.93,-13.672
1586550874.254,-17.09,41.016,20.02,-3.906,-5.371
1586550874.258,74.219,38.574,21.973,36.621,26.855
1586550874.262,97.656,39.062,22.461,52.246,78.125
1586550874.265,-3.418,37.598,25.879,9.277,22.949
1586550874.269,-26.367,34.18,25.879,-4.395,-23.926
1586550874.273,51.27,34.18,23.438,26.855,12.695
1586550874.277,109.863,32.227,21.973,49.316,43.945
1586550874.281,25.391,32.227,21.973,20.996,24.414
1586550874.285,-46.387,31.738,21.973,-3.906,0.488
1586550874.289,13.184,31.738,21.973,15.137,1.465
1586550874.293,105.469,33.691,24.414,51.758,18.555
1586550874.297,60.547,33.691,24.414,38.574,66.406
1586550874.301,-32.715,33.691,22.949,-2.441,66.406
1586550874.305,0,32.715,25.391,6.348,35.156
1586550874.308,93.262,31.25,25.391,42.969,40.527
1586550874.312,89.844,34.668,22.949,48.828,-1.465
1586550874.316,-16.113,34.18,26.855,9.766,-0.977
1586550874.32,-14.648,32.227,29.297,4.883,37.109
1586550874.324,72.266,31.25,26.855,40.039,-21.484
1586550874.328,108.398,32.227,28.809,55.664,7.812
1586550874.332,10.254,36.133,29.297,19.043,67.383
1586550874.336,-23.926,36.133,26.855,1.465,30.762
1586550874.34,51.27,35.645,26.855,33.203,54.688
1586550874.344,113.77,32.715,30.762,64.941,41.504
1586550874.348,36.621,32.715,31.738,36.133,27.344
1586550874.351,-32.227,33.203,30.273,2.93,62.012
1586550874.355,18.066,31.25,30.273,19.043,20.508
1586550874.359,100.098,32.227,25.879,59.57,0.977
1586550874.363,65.43,32.227,23.438,55.664,-5.371
1586550874.367,-28.32,31.738,26.367,15.137,30.273
1586550874.371,-7.324,32.227,27.344,12.207,24.414
1586550874.375,78.613,33.691,27.344,49.805,9.277
1586550874.379,89.844,32.715,28.809,60.547,13.184
1586550874.383,-12.695,31.738,28.809,17.578,-27.344
1586550874.387,-23.926,29.297,29.785,9.277,-11.719
1586550874.39,56.641,27.344,30.762,40.527,30.273
1586550874.394,106.934,32.227,28.32,63.965,8.301
1586550874.398,16.602,32.715,28.809,24.414,28.32
1586550874.402,-28.809,28.32,28.32,-2.93,71.777
1586550874.406,36.133,29.785,27.344,22.949,-4.883
1586550874.41,101.562,29.297,26.855,58.105,0
1586550874.414,33.691,25.879,26.367,36.621,62.012
1586550874.418,-40.039,22.949,28.32,-1.465,38.086
1586550874.422,6.348,24.902,29.785,14.16,1.465
1586550874.426,93.262,30.762,30.762,48.34,9.766
1586550874.43,70.801,30.273,32.715,43.945,41.016
1586550874.433,-23.926,29.297,30.762,9.766,41.992
1586550874.437,-5.371,28.32,29.785,11.23,50.781
1586550874.441,77.637,27.344,32.227,41.016,30.762
1586550874.445,94.727,28.32,28.809,50.293,54.199
1586550874.449,-11.23,27.832,30.762,9.277,112.793
1586550874.453,-33.691,28.32,33.203,-4.883,57.129
