timestamps,TP9,AF7,AF8,TP10,Right AUX
1586550179.078,139.648,36.133,34.668,62.012,47.363
1586550179.082,18.555,35.645,32.227,20.508,3.418
1586550179.086,-50.781,36.621,31.25,-11.23,-76.172
1586550179.09,21.973,31.25,35.156,29.785,-49.316
1586550179.094,120.117,29.785,34.18,72.266,8.301
1586550179.097,41.504,32.227,32.715,39.062,34.18
1586550179.101,-64.453,31.738,31.738,-13.184,23.926
1586550179.105,-7.812,32.715,32.227,7.812,35.156
1586550179.109,122.559,35.645,34.18,62.988,77.148
1586550179.113,90.332,34.18,29.785,47.363,81.543
1586550179.117,-56.152,28.809,29.297,-8.301,40.039
1586550179.121,-45.898,30.273,33.691,-5.859,24.902
1586550179.125,82.031,30.762,32.715,39.551,62.5
1586550179.129,111.328,28.809,32.227,57.617,80.078
1586550179.133,-22.949,29.297,32.715,10.742,59.082
1586550179.137,-49.316,26.367,32.227,-12.207,32.227
1586550179.14,65.43,25.879,29.785,28.32,4.883
1586550179.144,145.996,26.367,28.809,66.406,51.27
1586550179.148,17.578,26.367,29.785,18.066,49.316
1586550179.152,-69.336,27.344,28.809,-23.926,0.977
1586550179.156,4.395,25.391,32.227,5.859,-21.484
1586550179.16,125.488,24.414,34.668,68.848,27.832
1586550179.164,57.617,27.344,32.227,48.828,69.824
1586550179.168,-71.777,28.32,33.203,-10.742,35.156
1586550179.172,-34.668,29.297,32.715,-2.93,47.363
1586550179.176,92.773,27.832,29.785,52.246,83.008
1586550179.18,84.961,24.414,31.25,61.035,34.668
1586550179.183,-60.059,23.438,32.227,0.977,26.855
1586550179.187,-60.547,24.414,30.762,-12.207,5.859
1586550179.191,73.242,24.902,27.832,33.203,8.789
1586550179.195,133.789,23.926,27.832,59.57,53.711
1586550179.199,3.906,24.902,30.273,11.23,14.16
1586550179.203,-59.57,25.879,30.273,-22.949,2.93
1586550179.207,34.668,27.344,28.809,18.066,-18.555
1586550179.211,139.648,27.832,25.879,64.941,4.395
1586550179.215,35.156,32.227,20.996,24.414,22.949
1586550179.219,-64.453,34.18,25.879,-8.301,-57.129
1586550179.222,1.465,28.809,28.809,15.625,14.16
1586550179.226,127.441,25.391,28.809,54.688,54.688
1586550179.23,71.289,27.832,31.25,39.551,27.344
1586550179.234,-57.129,30.273,30.762,-9.766,27.344
1586550179.238,-18.555,30.273,30.273,-4.395,9.277
1586550179.242,103.027,32.715,28.809,47.852,65.43
1586550179.246,96.191,32.227,28.809,62.988,64.453
1586550179.25,-41.992,28.809,28.32,10.742,52.734
1586550179.254,-47.852,29.785,26.367,-6.348,43.457
1586550179.258,62.988,29.297,26.855,34.668,4.395
1586550179.262,132.324,29.785,29.785,63.965,-14.648
1586550179.265,11.719,32.715,31.738,18.066,-23.926
1586550179.269,-57.129,36.133,28.809,-10.742,-73.73
1586550179.273,35.645,39.062,35.156,28.809,-39.551
1586550179.277,138.672,36.621,19.043,66.406,76.66
1586550179.281,37.109,35.645,9.277,19.043,50.781
1586550179.285,-70.312,34.668,31.25,-24.414,-4.883
1586550179.289,-7.324,30.273,39.062,-2.441,39.062
1586550179.293,122.559,29.785,35.645,55.176,51.758
1586550179.297,74.219,26.367,34.668,51.27,59.082
1586550179.301,-65.43,23.438,37.109,-10.742,41.992
1586550179.305,-48.828,32.227,36.133,-4.883,42.48
1586550179.308,89.355,37.109,29.785,50.293,40.527
1586550179.312,120.117,35.156,25.391,53.711,-13.184
1586550179.316,-32.227,33.203,26.855,-5.859,-35.156
1586550179.32,-61.523,30.273,27.344,-21.973,49.805
1586550179.324,55.176,32.715,26.855,27.832,89.844
1586550179.328,138.672,36.133,32.715,64.941,21.484
1586550179.332,19.531,33.691,34.18,14.16,45.898
1586550179.336,-53.711,34.18,28.32,-25.879,42.969
1586550179.34,34.668,33.691,29.785,5.371,-15.625
1586550179.344,137.695,33.203,30.273,60.059,19.043
1586550179.347,36.621,27.832,32.227,40.039,8.301
1586550179.351,-84.473,28.32,37.109,-9.277,-30.273
1586550179.355,-41.504,37.109,36.621,-13.672,-41.992
1586550179.359,93.75,38.574,37.109,27.832,13.672
1586550179.363,83.496,39.551,39.062,20.508,47.363
1586550179.367,-71.289,37.109,41.016,-42.969,20.996
1586550179.371,-87.402,40.039,39.551,-48.828,-18.066
1586550179.375,42.48,43.457,35.156,20.996,24.902
1586550179.379,91.797,40.039,36.133,59.082,54.688
1586550179.383,-50.781,40.039,38.086,1.953,25.391
1586550179.387,-83.008,41.016,36.133,-15.625,-5.371
1586550179.39,35.645,36.621,36.621,28.32,-18.066
1586550179.394,125,35.156,36.133,58.594,32.227
1586550179.398,18.555,34.668,31.25,25.391,6.836
1586550179.402,-60.547,31.25,32.227,-10.742,-9.766
1586550179.406,5.859,26.855,31.25,13.184,13.184
1586550179.41,121.582,29.297,24.902,63.477,-19.043
1586550179.414,70.312,33.203,24.902,49.805,-20.508
1586550179.418,-54.688,32.227,28.32,-3.418,9.277
1586550179.422,-20.508,29.785,25.391,-4.395,10.742
1586550179.426,118.164,28.809,23.926,55.176,45.898
1586550179.43,119.629,29.297,31.25,60.059,66.406
1586550179.433,-33.203,29.297,29.785,1.465,48.34
1586550179.437,-46.387,27.832,29.297,-3.906,16.113
1586550179.441,81.055,25.879,34.668,44.434,-29.785
1586550179.445,143.066,26.367,34.18,81.055,20.996
1586550179.449,7.812,26.367,31.738,29.785,20.02
1586550179.453,-54.688,27.344,29.785,-4.883,11.23
1586550179.457,44.434,29.297,23.926,24.902,67.871
1586550179.461,152.344,31.25,24.902,71.777,79.102
1586550179.465,51.758,33.203,29.297,41.992,55.664
1586550179.469,-59.57,30.273,31.25,-10.742,72.754
1586550179.472,-4.395,25.879,32.227,4.395,9.277
1586550179.476,133.789,27.344,29.297,53.711,-37.598
1586550179.48,94.727,28.32,30.273,48.34,32.227
1586550179.484,-43.457,29.785,32.227,1.465,40.039
1586550179.488,-14.648,31.25,32.227,3.906,42.969
1586550179.492,115.723,27.832,29.297,57.617,73.73
1586550179.496,128.418,27.832,30.762,76.172,59.082
1586550179.5,-21.973,29.785,35.645,20.996,34.18
1586550179.504,-47.852,26.367,34.668,7.324,26.367
1586550179.508,70.312,27.344,31.25,53.711,47.852
1586550179.512,138.672,27.832,31.738,79.59,39.551
1586550179.515,16.602,27.344,29.785,37.109,-6.836
1586550179.519,-45.41,30.273,28.32,3.906,24.414
1586550179.523,42.969,29.297,33.691,24.414,41.504
1586550179.527,153.32,27.832,32.715,74.707,39.062
1586550179.531,59.082,27.832,32.715,51.758,62.988
1586550179.535,-61.035,26.855,35.645,9.277,22.949
1586550179.539,-8.301,29.297,35.645,21.484,49.316
1586550179.543,115.234,30.273,35.156,72.266,41.016
1586550179.547,85.449,28.809,33.691,61.523,20.508
1586550179.551,-49.316,28.32,33.691,0.977,26.855
1586550179.555,-43.457,27.832,32.715,6.348,-36.621
1586550179.558,81.543,28.32,29.785,49.316,8.301
1586550179.562,115.723,30.762,31.25,62.988,97.656
1586550179.566,-21.973,31.25,35.645,13.672,41.504
1586550179.57,-51.27,30.273,34.18,-14.648,-5.371
1586550179.574,58.105,33.203,29.297,23.438,3.906
1586550179.578,142.578,36.621,27.832,57.617,-3.418
1586550179.582,33.203,41.016,25.879,14.648,-4.395
1586550179.586,-49.316,39.062,23.926,-10.742,13.672
1586550179.59,17.09,37.109,28.809,20.996,-5.859
1586550179.594,132.812,39.551,31.25,68.359,-41.016
1586550179.597,63.965,40.527,30.273,44.922,-2.93
1586550179.601,-61.523,40.527,29.297,-10.254,26.367
1586550179.605,-29.785,40.039,27.832,5.859,-30.273
1586550179.609,101.074,40.039,27.344,58.105,-22.949
1586550179.613,86.426,38.086,28.809,49.316,67.383
1586550179.617,-53.711,36.133,29.297,-10.254,79.102
1586550179.621,-46.387,34.668,29.785,-13.672,54.199
1586550179.625,72.266,31.738,31.738,43.945,67.871
1586550179.629,123.047,31.738,33.203,71.289,93.75
1586550179.633,-13.672,28.809,32.715,13.184,32.715
1586550179.637,-65.43,29.785,31.25,-10.742,9.277
1586550179.64,37.109,33.203,30.273,31.25,46.875
1586550179.644,131.348,31.25,34.18,70.801,15.625
1586550179.648,25.879,31.25,35.645,33.203,21.484
1586550179.652,-66.406,32.227,31.738,-14.16,44.922
1586550179.656,3.906,31.25,33.203,6.348,-21.973
1586550179.66,136.719,30.762,34.18,66.895,-11.23
1586550179.664,83.496,33.203,31.738,46.387,54.199
1586550179.668,-56.152,34.668,33.691,-12.207,99.609
1586550179.672,-27.344,31.25,34.668,0.488,102.051
1586550179.676,106.934,28.809,30.762,56.641,76.66
1586550179.68,125.977,33.691,29.785,66.895,68.848
1586550179.683,-20.508,34.18,33.203,5.859,41.992
1586550179.687,-47.852,32.715,35.156,-6.836,44.922
1586550179.691,72.266,32.227,35.645,39.551,35.645
1586550179.695,141.602,32.227,31.738,63.477,46.875
1586550179.699,15.625,35.156,33.203,15.137,57.129
1586550179.703,-46.387,35.645,38.086,-9.766,23.926
1586550179.707,45.41,34.668,39.551,23.926,2.93
1586550179.711,142.578,35.156,39.062,65.43,6.348
1586550179.715,53.223,31.738,36.133,33.691,37.598
1586550179.719,-58.105,30.273,35.156,-10.254,15.137
1586550179.722,-13.184,29.297,37.598,18.555,2.93
1586550179.726,120.605,28.809,34.18,78.125,40.527
1586550179.73,76.66,30.273,32.715,59.082,31.738
1586550179.734,-64.941,29.785,33.203,-3.418,9.277
1586550179.738,-36.621,29.297,31.738,1.465,-7.812
1586550179.742,91.309,29.785,35.156,51.27,16.113
1586550179.746,117.188,31.738,35.645,62.5,46.387
1586550179.75,-17.578,32.227,34.18,2.93,18.066
1586550179.754,-40.527,36.133,35.156,-15.625,22.949
1586550179.758,67.383,40.527,37.109,33.203,14.16
1586550179.762,141.602,36.621,35.645,67.383,28.809
1586550179.765,16.602,31.738,32.227,17.09,13.672
1586550179.769,-67.383,29.785,30.762,-21.973,38.574
1586550179.773,11.719,30.762,34.18,10.742,-1.953
1586550179.777,132.812,30.762,36.133,59.57,-53.223
1586550179.781,54.688,29.785,34.668,39.062,-5.859
1586550179.785,-77.148,28.32,34.668,-8.789,43.457
1586550179.789,-28.809,30.273,33.691,-3.906,48.828
1586550179.793,109.863,29.297,32.227,52.734,63.477
1586550179.797,89.844,24.902,33.203,47.363,42.969
1586550179.801,-51.758,25.391,34.668,-1.465,25.391
1586550179.805,-45.41,24.414,38.086,1.953,69.336
1586550179.808,86.426,24.902,39.551,48.34,45.41
1586550179.812,130.859,25.391,39.551,73.73,31.738
1586550179.816,-10.742,25.879,39.062,16.113,12.695
1586550179.82,-62.988,25.879,38.574,-13.672,11.23
1586550179.824,43.457,25.879,37.109,31.25,59.082
1586550179.828,146.973,29.785,34.668,67.871,34.18
1586550179.832,42.48,31.738,37.109,27.344,-15.625
1586550179.836,-48.828,32.715,39.551,-9.277,-44.922
1586550179.84,19.531,31.25,40.039,15.137,-20.508
1586550179.844,142.09,31.25,39.062,79.102,9.277
1586550179.847,82.52,34.668,36.621,70.312,1.465
1586550179.851,-61.035,31.25,40.039,-17.09,21.973
1586550179.855,-27.832,27.344,42.969,-27.344,51.758
1586550179.859,103.516,30.762,36.133,51.758,70.312
1586550179.863,98.633,35.156,27.344,58.594,59.57
1586550179.867,-46.875,35.645,25.391,-3.418,47.852
1586550179.871,-55.176,37.598,25.879,-3.418,-8.301
1586550179.875,80.566,39.551,29.297,43.945,-27.344
1586550179.879,139.16,36.621,32.227,77.148,13.184
1586550179.883,1.465,35.645,32.715,25.391,-30.762
1586550179.887,-61.035,34.668,34.668,-14.16,-16.602
1586550179.89,34.668,31.738,33.203,21.973,10.742
1586550179.894,140.625,32.715,33.691,71.777,32.715
1586550179.898,41.504,35.156,33.691,31.25,5.859
1586550179.902,-61.523,39.062,31.25,-19.531,-46.875
1586550179.906,-9.277,36.621,32.227,4.395,49.316
1586550179.91,112.305,32.715,32.227,57.617,27.344
1586550179.914,65.43,31.25,31.25,41.992,-0.977
1586550179.918,-65.918,27.832,32.715,-9.766,-47.852
1586550179.922,-35.645,30.273,31.738,-3.418,-49.805
1586550179.926,99.121,31.738,31.25,46.875,37.109
1586550179.93,119.141,32.227,31.738,57.129,2.441
1586550179.933,-29.297,32.715,33.691,5.371,2.441
1586550179.937,-54.688,30.762,36.133,-8.301,62.5
1586550179.941,52.246,31.738,33.691,27.344,60.059
1586550179.945,115.234,35.645,31.25,59.082,79.59
1586550179.949,1.953,34.18,33.203,17.09,40.527
1586550179.953,-67.871,32.227,34.18,-9.277,25.391
1586550179.957,21.973,35.645,31.738,17.578,28.809
1586550179.961,140.137,39.062,31.25,55.176,43.457
1586550179.965,53.223,37.109,34.668,33.203,43.457
1586550179.969,-58.105,35.645,33.691,-6.836,25.391
1586550179.972,1.953,35.156,30.762,7.812,21.973
1586550179.976,136.23,36.621,31.738,56.641,57.129
1586550179.98,98.633,36.133,34.18,54.199,17.578
1586550179.984,-62.012,32.227,33.691,0.488,-33.691
1586550179.988,-47.363,34.18,30.273,4.395,1.953
1586550179.992,87.402,33.691,32.715,51.758,8.301
1586550179.996,126.465,33.203,36.133,62.988,10.742
1586550180,-12.207,33.203,34.18,3.906,28.32
1586550180.004,-46.387,32.227,33.203,-23.438,3.906
1586550180.008,64.941,31.738,35.156,29.297,4.395
1586550180.012,142.578,31.738,34.668,71.289,-20.508
1586550180.015,25.391,30.273,33.203,25.391,-30.273
1586550180.019,-58.105,30.762,35.645,-4.395,48.828
1586550180.023,27.832,35.645,35.645,22.461,104.004
1586550180.027,148.438,35.156,36.621,68.359,76.66
1586550180.031,58.105,32.227,40.527,47.363,16.113
1586550180.035,-62.012,34.18,41.504,-2.441,22.461
1586550180.039,-15.137,32.227,40.527,8.301,26.367
1586550180.043,113.77,31.25,40.039,52.246,32.715
1586550180.047,103.516,33.691,40.039,49.805,41.016
1586550180.051,-42.969,30.762,39.062,-8.789,-27.344
1586550180.055,-54.199,31.25,38.086,-17.09,-69.336
1586550180.058,70.801,34.18,37.598,41.992,-32.227
1586550180.062,129.395,33.203,40.039,66.895,93.75
1586550180.066,-8.789,34.18,42.48,12.207,73.242
1586550180.07,-60.547,34.18,42.48,-5.859,-34.18
1586550180.074,33.691,30.273,41.504,32.227,-14.648
1586550180.078,125.977,31.738,39.551,68.848,39.551
1586550180.082,25.391,33.691,39.062,26.367,55.664
1586550180.086,-66.895,32.715,38.086,-11.719,1.465
1586550180.09,-1.465,34.668,38.574,14.648,-20.508
1586550180.094,125,32.715,41.504,70.801,-41.016
1586550180.097,76.172,34.668,41.504,49.805,-48.34
1586550180.101,-63.477,35.156,39.062,-10.742,12.207
1586550180.105,-39.551,30.762,36.621,-2.93,31.738
1586550180.109,99.121,33.203,35.156,36.133,50.781
1586550180.113,109.863,32.715,34.18,51.27,40.527
1586550180.117,-34.18,32.227,31.25,1.465,11.719
1586550180.121,-51.758,33.691,32.227,-13.672,71.777
1586550180.125,73.242,33.691,32.227,38.574,82.031
1586550180.129,138.184,32.715,31.25,70.312,68.359
1586550180.133,-5.371,33.203,32.227,20.996,60.059
1586550180.137,-70.312,31.25,33.691,-2.441,84.473
1586550180.14,27.832,29.785,35.156,35.156,23.438
1586550180.144,144.531,30.273,34.668,68.848,23.438
1586550180.148,54.199,31.738,32.227,34.18,59.57
1586550180.152,-68.848,30.273,28.809,-9.766,26.367
1586550180.156,-15.625,24.414,31.25,4.883,68.848
1586550180.16,120.117,27.344,33.203,63.477,75.195
1586550180.164,94.238,30.762,32.715,58.105,45.898
1586550180.168,-32.227,28.32,35.645,11.719,23.438
1586550180.172,-11.23,28.32,36.133,7.324,24.902
1586550180.176,102.051,31.738,37.598,52.246,81.055
1586550180.18,126.953,30.762,36.133,65.918,93.75
1586550180.183,-19.531,29.297,35.645,8.789,28.32
1586550180.187,-57.129,29.297,37.109,4.883,10.742
1586550180.191,68.848,26.855,37.109,35.156,56.641
1586550180.195,114.258,28.32,41.016,60.547,58.594
1586550180.199,-11.23,32.227,39.062,8.789,41.992
1586550180.203,-73.242,35.156,33.203,-40.527,40.527
1586550180.207,0,31.25,37.109,10.254,51.758
1586550180.211,123.535,31.738,38.086,72.754,79.59
1586550180.215,55.664,32.715,36.621,44.434,26.367
1586550180.219,-67.871,28.809,36.621,-5.859,20.508
1586550180.222,-20.996,30.273,34.18,6.836,20.508
1586550180.226,122.07,33.203,31.738,59.57,9.766
1586550180.23,100.586,30.762,33.203,53.223,59.57
1586550180.234,-57.617,25.879,35.156,-13.184,23.926
1586550180.238,-56.641,27.344,32.227,-25.391,2.93
1586550180.242,59.57,27.344,33.691,28.32,20.02
1586550180.246,101.074,24.902,36.621,50.781,42.969
1586550180.25,-39.551,24.902,35.645,-5.371,42.969
1586550180.254,-86.914,22.949,31.738,-32.715,-44.922
1586550180.258,26.367,20.02,31.738,3.418,-28.809
1586550180.262,121.582,21.973,29.785,47.363,41.992
1586550180.265,5.371,24.902,29.297,10.254,51.27
1586550180.269,-107.91,22.949,34.18,-19.043,5.859
1586550180.273,-41.016,22.461,35.156,9.766,-12.695
1586550180.277,90.82,24.414,31.738,52.734,34.18
1586550180.281,29.785,24.902,27.832,27.832,71.777
1586550180.285,-91.797,26.855,30.273,-17.578,22.461
1586550180.289,-61.523,28.32,30.762,-0.488,12.695
1586550180.293,69.824,27.344,28.32,55.664,62.012
1586550180.297,73.242,27.344,30.273,66.406,25.879
1586550180.301,-68.359,30.762,35.156,-0.488,71.777
1586550180.305,-72.754,29.785,37.109,-22.461,38.574
1586550180.308,41.992,26.855,33.203,30.762,-68.848
1586550180.312,97.168,28.809,33.691,63.965,-14.648
1586550180.316,-40.039,28.809,37.598,10.742,44.434
1586550180.32,-95.703,27.832,38.574,-20.996,23.438
1586550180.324,9.766,29.785,36.621,23.926,25.879
1586550180.328,108.398,33.203,35.645,75.195,-2.93
1586550180.332,4.395,31.738,36.621,40.039,-31.25
1586550180.336,-91.309,33.203,36.621,-2.93,14.16
1586550180.34,-15.625,36.621,37.109,20.996,13.672
1586550180.344,116.211,35.156,38.574,76.172,32.227
1586550180.347,64.941,36.133,36.621,60.059,35.645
1586550180.351,-73.242,33.691,34.668,-3.418,3.418
1586550180.355,-41.016,34.18,36.133,-0.488,-0.977
1586550180.359,102.539,40.039,35.645,47.363,2.441
1586550180.363,119.629,41.992,35.645,61.523,14.648
1586550180.367,-35.156,39.062,38.574,9.277,22.461
1586550180.371,-54.688,33.691,40.527,-2.93,20.02
1586550180.375,55.664,32.715,38.086,52.734,25.391
1586550180.379,128.418,35.645,34.668,86.426,17.578
1586550180.383,17.09,35.156,35.645,28.32,32.715
1586550180.387,-52.734,36.133,37.109,-9.766,37.598
1586550180.39,32.715,33.691,37.598,22.949,29.297
1586550180.394,150.391,29.297,37.109,71.289,63.477
1586550180.398,66.895,29.785,38.574,55.664,52.734
1586550180.402,-46.387,24.902,39.062,11.719,13.184
1586550180.406,9.277,19.043,38.086,25.879,-1.465
1586550180.41,134.277,16.602,36.133,74.219,56.152
1586550180.414,98.633,16.113,34.668,60.059,50.781
1586550180.418,-43.457,12.695,33.691,3.418,31.738
1586550180.422,-38.086,11.23,32.715,-2.441,27.344
1586550180.426,90.82,13.184,31.738,45.898,-5.859
1586550180.43,127.93,12.695,32.715,65.918,-13.184
1586550180.433,-10.254,14.648,28.809,11.719,-18.555
1586550180.437,-42.969,13.184,28.32,-2.441,-6.348
1586550180.441,62.012,8.301,29.785,30.762,30.273
1586550180.445,146.973,7.324,30.273,64.941,76.172
1586550180.449,28.809,6.348,31.25,26.855,58.594
1586550180.453,-52.246,4.883,28.32,-9.766,4.395
1586550180.457,20.02,3.906,30.273,16.113,-4.883
1586550180.461,139.648,8.301,34.18,59.082,59.082
1586550180.465,77.637,12.207,36.133,46.387,35.645
1586550180.469,-56.152,10.254,34.18,-9.277,-17.578
1586550180.472,-20.996,11.719,31.738,-10.742,-12.695
1586550180.476,110.84,14.648,33.203,45.898,33.691
1586550180.48,107.91,13.184,32.227,50.781,41.992
1586550180.484,-20.508,15.137,32.227,-0.977,17.578
1586550180.488,-20.02,17.09,33.203,-8.301,35.156
1586550180.492,98.633,17.09,30.273,40.039,59.082
1586550180.496,141.602,15.625,32.715,75.195,54.688
1586550180.5,-1.953,14.648,35.645,23.926,21.484
1586550180.504,-58.105,17.578,34.668,-2.93,0.977
1586550180.508,42.969,19.531,35.156,43.457,0.488
1586550180.512,145.996,18.066,36.133,81.543,63.477
1586550180.515,39.551,18.066,38.086,43.945,63.965
1586550180.519,-52.246,17.09,38.086,-10.254,-29.297
1586550180.523,20.02,19.531,35.156,9.277,-1.953
1586550180.527,153.809,21.484,31.25,68.848,53.711
1586550180.531,104.98,18.066,30.273,40.039,60.547
1586550180.535,-28.32,17.578,33.691,-7.812,83.496
1586550180.539,-0.488,18.555,35.156,6.348,26.855
1586550180.543,122.559,19.043,36.133,48.34,32.715
1586550180.547,126.465,16.602,39.551,63.965,118.164
1586550180.551,-20.508,17.578,39.062,9.277,56.152
1586550180.555,-37.109,20.508,37.109,-5.859,-15.137
1586550180.558,83.984,20.02,37.598,37.598,-0.977
1586550180.562,154.297,20.996,37.598,73.242,59.57
1586550180.566,20.02,21.973,37.109,33.203,61.035
1586550180.57,-54.199,21.973,38.086,-8.789,-10.254
1586550180.574,42.969,22.461,37.598,17.09,-16.602
1586550180.578,149.902,23.926,35.156,62.012,109.375
1586550180.582,49.805,21.973,35.645,37.109,104.492
1586550180.586,-51.758,18.066,38.086,8.301,11.719
1586550180.59,5.859,20.02,37.598,24.414,8.789
1586550180.594,128.906,22.949,36.621,60.547,26.367
1586550180.597,97.168,20.02,36.133,55.664,59.082
1586550180.601,-43.945,19.531,32.715,0.488,-19.043
1586550180.605,-35.156,20.508,28.32,0,-65.43
1586550180.609,90.82,19.043,31.25,47.363,20.996
1586550180.613,117.188,21.484,36.133,55.664,56.641
1586550180.617,-20.02,22.461,34.18,-2.441,-23.438
1586550180.621,-48.34,19.531,35.645,-25.391,-23.438
1586550180.625,56.641,20.508,37.598,26.855,-4.395
1586550180.629,133.301,23.438,36.621,70.312,-25.879
1586550180.633,16.602,21.973,38.574,25.391,5.859
1586550180.637,-59.57,18.555,38.086,-14.16,28.32
1586550180.64,33.203,20.508,36.133,13.672,19.043
1586550180.644,149.902,23.438,35.645,61.035,7.324
1586550180.648,66.895,22.461,35.156,32.715,20.02
1586550180.652,-46.387,21.484,35.645,-17.09,3.418
1586550180.656,-12.695,23.438,34.668,-0.977,-50.293
1586550180.66,111.816,24.414,34.18,62.012,-21.973
1586550180.664,104.98,24.414,35.645,63.965,11.23
1586550180.668,-39.062,23.926,33.691,0,-19.043
1586550180.672,-33.691,21.484,32.227,-12.695,7.324
1586550180.676,90.82,21.484,33.203,43.457,50.293
1586550180.68,125,22.949,36.133,70.312,40.527
1586550180.683,-18.555,21.484,38.086,15.137,31.25
1586550180.687,-62.012,21.484,38.086,-4.395,-7.324
1586550180.691,56.152,22.949,35.156,27.832,-19.043
1586550180.695,142.09,22.949,35.156,62.5,39.551
1586550180.699,26.367,26.367,32.227,25.879,20.508
1586550180.703,-52.246,29.297,30.273,-5.859,-14.16
1586550180.707,12.695,25.391,38.086,6.348,-9.766
1586550180.711,120.605,22.461,42.969,42.969,-8.789
1586550180.715,69.824,25.879,41.016,29.297,-9.277
1586550180.719,-55.664,25.391,41.992,-20.02,-3.906
1586550180.722,-26.855,20.508,41.504,-2.93,36.133
1586550180.726,105.469,22.461,41.016,54.199,91.309
1586550180.73,96.191,25.391,41.504,53.711,83.984
1586550180.734,-41.504,26.855,40.039,-9.766,54.199
1586550180.738,-49.316,23.438,39.062,-14.648,31.738
1586550180.742,77.148,22.461,42.48,36.133,37.109
1586550180.746,142.09,25.391,41.504,68.359,57.617
1586550180.75,12.207,22.949,37.109,20.508,14.16
1586550180.754,-44.922,22.949,38.574,-20.996,12.207
1586550180.758,15.625,26.367,39.551,12.207,28.809
1586550180.762,124.023,26.367,38.574,63.965,30.273
1586550180.765,51.27,25.879,38.574,23.926,36.133
1586550180.769,-58.105,22.461,37.109,-19.043,29.785
1586550180.773,-2.93,22.949,35.645,6.836,11.23
1586550180.777,118.164,25.391,37.598,50.781,37.109
1586550180.781,69.336,23.438,38.086,41.504,53.223
1586550180.785,-59.082,23.926,36.621,-9.277,49.805
1586550180.789,-31.25,25.879,37.109,-9.766,24.414
1586550180.793,106.934,28.32,36.133,53.711,46.387
1586550180.797,114.258,27.832,32.715,62.988,105.957
1586550180.801,-38.574,27.344,32.227,0.488,104.492
1586550180.805,-47.363,25.391,33.691,-15.137,36.621
1586550180.808,67.383,24.414,35.156,36.133,21.484
1586550180.812,136.719,23.438,37.109,71.777,66.895
1586550180.816,13.184,21.484,38.574,25.391,20.996
1586550180.82,-49.316,24.414,35.156,-4.395,2.441
1586550180.824,50.293,28.809,32.227,26.855,3.906
1586550180.828,165.039,26.855,34.18,71.777,66.406
1586550180.832,67.871,24.902,29.297,43.457,55.664
1586550180.836,-57.617,22.949,27.344,-10.742,2.93
1586550180.84,-3.418,20.02,32.227,0.977,17.09
1586550180.844,127.93,19.531,31.25,57.129,20.508
1586550180.847,96.191,21.484,32.227,55.664,-32.227
1586550180.851,-55.664,20.996,33.203,-4.395,-64.941
1586550180.855,-46.387,22.949,30.273,-14.648,-17.578
1586550180.859,93.75,26.367,27.832,42.48,9.277
1586550180.863,124.023,26.367,27.344,62.012,-42.969
1586550180.867,-29.785,27.344,27.832,5.859,-1.465
1586550180.871,-70.801,28.32,26.855,-7.324,37.109
1586550180.875,48.828,29.297,27.344,29.785,7.324
1586550180.879,145.508,31.25,28.809,72.754,0.488
1586550180.883,14.16,31.738,31.738,37.109,13.672
1586550180.887,-80.078,29.297,31.738,-25.391,52.734
1586550180.89,8.301,27.344,29.785,3.418,40.527
1586550180.894,128.906,25.879,29.297,64.453,36.133
1586550180.898,62.012,25.391,30.273,45.898,30.762
1586550180.902,-66.406,26.367,31.25,-5.859,-9.766
1586550180.906,-26.855,28.32,29.297,0.488,-85.449
1586550180.91,114.258,25.391,29.785,59.082,-73.242
1586550180.914,96.68,22.949,33.691,64.941,18.066
1586550180.918,-49.805,27.832,37.598,-1.465,108.887
1586550180.922,-51.27,31.25,37.109,-11.719,68.848
1586550180.926,75.195,29.297,36.621,45.41,9.766
1586550180.93,138.184,29.297,37.598,66.406,15.137
1586550180.933,10.254,29.297,38.086,10.742,-31.738
1586550180.937,-45.898,27.344,38.574,-14.648,-20.996
1586550180.941,41.016,28.32,34.668,24.414,62.012
1586550180.945,134.766,28.809,36.621,66.406,106.934
1586550180.949,33.203,29.297,38.574,31.25,65.918
1586550180.953,-68.359,26.855,38.086,-6.836,11.23
1586550180.957,5.859,26.855,39.062,8.301,-10.742
1586550180.961,128.906,27.344,38.574,62.988,4.883
1586550180.965,66.406,24.414,36.621,53.711,39.551
1586550180.969,-52.246,25.879,34.18,-5.859,23.926
1586550180.972,-16.602,27.832,31.738,-2.93,-21.973
1586550180.976,110.352,26.855,32.715,49.316,13.184
1586550180.98,111.328,24.902,38.086,53.223,59.57
1586550180.984,-39.551,21.484,40.527,-5.371,39.551
1586550180.988,-43.457,24.902,37.109,-16.602,3.906
1586550180.992,81.055,23.438,36.133,35.156,35.645
1586550180.996,138.184,20.508,35.645,63.477,54.688
1586550181,4.395,22.461,34.18,11.719,-21.973
1586550181.004,-55.176,20.996,35.156,-14.16,6.836
1586550181.008,36.621,21.484,35.645,28.809,22.949
1586550181.012,126.465,23.926,35.156,66.406,77.637
1586550181.015,38.574,22.461,32.227,18.555,64.941
1586550181.019,-66.895,21.484,28.809,-25.879,-19.043
1586550181.023,-20.02,22.461,26.855,-3.906,11.719
1586550181.027,114.258,24.902,26.855,49.316,65.918
1586550181.031,86.426,27.344,31.25,48.828,89.355
1586550181.035,-52.246,26.367,33.691,-1.953,31.738
1586550181.039,-34.668,25.391,35.645,-2.441,18.066
1586550181.043,105.469,24.902,35.645,55.176,12.695
1586550181.047,128.906,25.391,33.203,70.801,-22.949
1586550181.051,-15.625,25.391,33.691,10.742,-26.367
1586550181.055,-53.711,25.391,31.25,-14.16,-33.203
1586550181.058,59.082,26.855,30.273,30.762,-1.953
1586550181.062,143.555,27.832,29.297,65.43,38.574
1586550181.066,24.902,27.832,29.785,16.113,3.418
1586550181.07,-55.176,27.344,28.32,-17.09,5.371
1586550181.074,24.414,25.391,27.344,19.531,-17.578
1586550181.078,142.09,26.367,28.32,77.148,14.16
1586550181.082,45.898,27.832,31.738,53.223,34.668
1586550181.086,-72.266,26.367,32.715,-7.324,0.488
1586550181.09,-6.348,27.344,30.273,-3.418,8.301
1586550181.094,136.719,26.367,28.809,40.039,26.855
1586550181.097,119.141,25.879,29.785,40.039,15.625
1586550181.101,-35.156,29.297,32.227,-0.488,43.945
1586550181.105,-41.992,29.785,33.203,8.789,72.754
1586550181.109,73.242,27.832,33.203,56.641,93.75
1586550181.113,113.281,27.832,34.18,77.148,83.008
1586550181.117,-20.02,31.738,32.715,16.602,32.227
1586550181.121,-57.129,30.273,33.203,-10.742,43.945
1586550181.125,51.27,26.367,37.109,32.227,59.082
1586550181.129,147.949,29.785,38.574,67.383,57.129
1586550181.133,22.949,30.273,38.086,20.996,22.461
1586550181.137,-87.402,27.344,34.668,-25.391,17.09
1586550181.14,-16.602,28.809,32.227,6.348,12.207
1586550181.144,112.793,29.297,30.273,61.035,-6.836
1586550181.148,60.547,27.344,30.273,41.992,-24.902
1586550181.152,-68.359,27.832,32.715,-3.906,-11.23
1586550181.156,-30.273,28.809,34.18,9.766,34.668
1586550181.16,117.188,31.738,33.691,71.777,11.23
1586550181.164,124.023,33.691,34.668,83.496,42.969
1586550181.168,-26.367,33.203,31.738,20.508,20.02
1586550181.172,-49.316,29.297,28.809,-5.371,-32.227
1586550181.176,74.707,28.809,33.203,39.551,-23.438
1586550181.18,133.789,28.32,33.203,69.824,-7.324
1586550181.183,-6.836,28.809,28.809,7.324,-20.996
1586550181.187,-59.57,29.785,29.297,-25.391,27.344
1586550181.191,48.828,29.785,31.738,10.742,38.086
1586550181.195,150.391,29.785,33.203,59.57,39.062
1586550181.199,40.527,28.809,33.691,37.109,42.48
1586550181.203,-62.5,29.297,34.18,-6.836,34.18
1586550181.207,1.953,29.785,31.738,12.207,25.879
1586550181.211,130.859,30.762,31.25,67.871,84.961
1586550181.215,80.566,32.715,37.598,56.641,87.891
1586550181.219,-47.852,33.203,37.109,2.93,-7.812
1586550181.222,-19.531,34.668,30.273,6.348,-8.301
1586550181.226,98.633,34.18,32.227,54.199,41.016
1586550181.23,113.281,33.203,35.156,61.523,51.27
1586550181.234,-27.832,33.691,33.203,11.719,5.371
1586550181.238,-47.363,34.18,34.668,-6.836,25.391
1586550181.242,58.594,32.715,36.621,32.715,53.711
1586550181.246,117.188,31.25,39.062,81.543,8.789
1586550181.25,-8.301,29.297,39.551,31.25,-8.789
1586550181.254,-67.383,29.297,38.086,-9.766,-30.762
1586550181.258,24.902,29.297,35.156,24.414,-38.086
1586550181.262,133.789,27.832,33.203,58.105,-16.602
1586550181.265,48.34,26.367,34.18,31.25,-23.926
1586550181.269,-66.406,28.32,34.668,-16.602,6.836
1586550181.273,-16.602,28.32,36.133,-0.488,49.805
1586550181.277,113.77,27.344,37.598,59.082,37.598
1586550181.281,89.355,28.32,36.133,46.875,46.875
1586550181.285,-43.457,27.832,35.645,-13.184,6.348
1586550181.289,-32.227,26.367,34.668,-10.254,3.418
1586550181.293,90.332,25.879,31.738,35.156,81.543
1586550181.297,107.91,27.344,33.691,56.152,24.414
1586550181.301,-41.504,26.367,36.621,18.066,0
1586550181.305,-65.918,28.809,35.156,-4.395,-18.555
1586550181.308,40.527,29.785,31.25,22.949,-58.105
1586550181.312,117.676,28.32,30.762,48.828,63.477
1586550181.316,25.879,27.344,30.762,11.23,85.449
1586550181.32,-59.082,26.367,28.32,-17.578,29.297
1586550181.324,6.348,30.273,27.832,6.836,73.73
1586550181.328,137.695,30.273,33.203,56.641,99.121
1586550181.332,57.617,30.273,35.645,38.086,18.555
1586550181.336,-64.453,31.25,35.156,-2.441,-1.465
1586550181.34,-12.695,31.738,38.086,16.602,22.949
1586550181.344,107.422,32.715,37.598,66.406,25.391
1586550181.347,94.238,33.203,34.668,61.035,63.477
1586550181.351,-44.434,33.691,36.621,3.906,83.496
1586550181.355,-45.41,32.227,37.598,-3.418,0
1586550181.359,74.707,30.273,36.621,43.457,-32.715
1586550181.363,121.094,33.203,30.762,62.012,-16.113
1586550181.367,-18.066,31.738,29.297,10.254,21.973
1586550181.371,-77.148,24.902,35.645,-19.043,92.285
1586550181.375,19.531,25.879,33.203,9.766,32.227
1586550181.379,129.395,26.855,32.227,50.293,-16.113
1586550181.383,43.945,26.855,38.086,23.926,3.418
1586550181.387,-58.594,28.32,36.621,-18.066,-10.254
1586550181.39,5.859,25.879,34.18,2.441,23.438
1586550181.394,125,25.391,31.738,51.27,66.406
1586550181.398,66.406,24.902,32.227,34.18,41.504
1586550181.402,-65.918,21.484,36.621,-13.184,31.25
1586550181.406,-41.992,20.996,33.691,-5.859,62.988
1586550181.41,99.609,23.438,31.738,53.711,65.918
1586550181.414,114.258,24.902,35.156,68.848,48.828
1586550181.418,-29.785,26.367,31.25,3.906,46.875
1586550181.422,-47.852,26.855,29.297,-13.672,8.301
1586550181.426,66.406,26.855,30.762,33.691,1.953
1586550181.43,125.977,27.832,32.227,67.871,-12.695
1586550181.433,1.465,27.832,35.156,10.742,-62.5
1586550181.437,-48.828,28.809,35.645,-20.996,-7.812
1586550181.441,38.574,28.809,36.133,17.09,29.785
1586550181.445,133.301,29.297,36.133,63.965,26.367
1586550181.449,50.781,30.762,34.668,37.598,18.066
1586550181.453,-57.129,31.25,35.156,-12.207,45.41
1586550181.457,-7.324,30.762,35.645,12.207,57.617
1586550181.461,131.836,31.738,35.156,67.871,40.527
1586550181.465,88.867,30.273,34.18,41.992,-5.859
1586550181.469,-57.617,29.297,34.18,-17.09,20.02
1586550181.472,-47.363,31.25,35.156,-9.766,60.547
1586550181.476,75.195,30.273,36.621,42.969,0
1586550181.48,104.004,29.785,36.621,55.176,25.879
1586550181.484,-31.738,34.18,34.668,6.836,30.762
1586550181.488,-58.594,34.668,34.18,-3.418,33.203
1586550181.492,52.246,33.691,35.156,32.715,47.363
1586550181.496,135.254,34.668,37.598,69.824,14.16
1586550181.5,25.391,33.691,36.133,38.086,-7.812
1586550181.504,-50.293,32.227,33.691,6.348,-13.672
1586550181.508,24.414,30.273,35.645,18.555,-75.195
1586550181.512,142.578,28.809,36.621,60.059,-6.348
1586550181.515,63.477,28.32,35.156,37.109,75.195
1586550181.519,-64.453,28.809,35.156,-18.555,28.809
1586550181.523,-5.859,30.273,35.156,-7.812,18.555
1586550181.527,119.141,28.32,34.668,36.621,7.812
1586550181.531,94.727,27.832,36.133,39.062,28.809
1586550181.535,-42.48,24.902,39.551,-7.324,-15.625
1586550181.539,-36.133,24.902,40.039,-2.93,-3.906
1586550181.543,98.145,27.832,40.039,53.711,48.34
1586550181.547,119.141,25.879,41.504,68.848,64.941
1586550181.551,-39.062,22.949,41.504,5.859,64.453
1586550181.555,-73.242,23.438,40.039,-17.09,15.137
1586550181.558,40.527,25.879,38.574,24.902,2.93
1586550181.562,127.93,26.367,36.621,65.43,62.5
1586550181.566,15.137,26.855,36.133,34.18,37.598
1586550181.57,-67.383,26.855,36.133,-7.324,0.488
1586550181.574,12.695,30.273,35.156,12.695,-45.41
1586550181.578,135.742,35.156,33.203,70.801,-12.207
1586550181.582,77.148,35.645,30.762,60.059,3.906
1586550181.586,-50.293,34.668,32.227,-0.977,-21.973
1586550181.59,-10.254,33.203,34.18,0.488,33.691
1586550181.594,125.488,34.668,33.691,60.059,41.016
1586550181.597,116.211,37.109,32.715,57.617,53.711
1586550181.601,-26.855,37.109,34.668,-8.301,47.852
1586550181.605,-42.48,35.645,35.156,-23.438,31.25
1586550181.609,64.941,35.156,35.645,22.949,14.16
1586550181.613,125.977,35.645,34.18,52.246,19.531
1586550181.617,-0.977,36.621,32.227,4.883,-14.648
1586550181.621,-62.5,36.621,32.715,-19.043,-8.789
1586550181.625,23.926,38.574,32.715,19.043,43.945
1586550181.629,113.77,39.062,34.18,66.406,-3.418
1586550181.633,14.648,35.156,36.133,35.645,-30.762
1586550181.637,-82.031,33.203,35.156,-16.113,36.133
1586550181.64,-10.742,33.203,32.715,0.977,61.523
1586550181.644,117.676,33.203,31.738,62.012,21.973
1586550181.648,62.5,34.18,34.18,51.758,37.598
1586550181.652,-66.406,32.715,35.645,-2.441,25.879
1586550181.656,-41.016,29.785,33.691,-3.418,40.039
1586550181.66,82.031,30.762,31.738,31.25,63.477
1586550181.664,106.445,32.227,32.715,47.852,-10.742
1586550181.668,-44.434,32.227,34.18,0.488,-4.395
1586550181.672,-66.895,31.25,30.762,-14.16,49.805
1586550181.676,54.199,26.855,32.715,32.227,12.207
1586550181.68,125.977,28.32,35.645,64.453,-8.789
1586550181.683,9.277,28.809,33.203,18.066,30.762
1586550181.687,-64.453,25.391,31.25,-28.809,50.293
1586550181.691,19.043,27.344,31.25,6.836,38.086
1586550181.695,132.812,28.32,31.25,62.988,61.035
1586550181.699,48.34,24.414,32.227,31.25,21.973
1586550181.703,-75.195,22.949,32.227,-10.742,4.395
1586550181.707,-30.273,25.391,29.785,3.906,34.668
1586550181.711,106.934,27.344,27.344,54.199,30.762
1586550181.715,82.52,28.32,30.273,48.828,31.738
1586550181.719,-56.152,28.32,35.645,-9.277,11.719
1586550181.722,-40.527,27.832,33.691,-14.16,11.23
1586550181.726,84.473,26.367,31.25,32.227,32.715
1586550181.73,114.746,25.879,32.715,47.852,1.953
1586550181.734,-29.785,24.414,35.645,-0.977,18.555
1586550181.738,-65.43,26.367,34.668,-17.09,32.715
1586550181.742,53.711,29.297,31.25,20.996,36.621
1586550181.746,132.324,28.32,27.832,49.805,25.879
1586550181.75,1.465,28.32,29.785,9.766,22.949
1586550181.754,-88.867,26.855,31.738,-19.531,-12.695
1586550181.758,-12.207,26.855,29.297,7.812,-7.812
1586550181.762,114.258,27.344,29.297,62.5,27.832
1586550181.765,51.27,25.391,27.832,34.668,54.199
1586550181.769,-72.266,22.949,29.297,-19.531,59.57
1586550181.773,-30.762,24.902,28.809,-12.695,10.742
1586550181.777,111.816,25.879,26.855,43.457,50.293
1586550181.781,107.422,24.902,28.32,53.711,58.105
1586550181.785,-42.48,26.855,29.785,0,-16.602
1586550181.789,-50.781,26.855,30.762,-0.977,-4.883
1586550181.793,68.848,27.344,31.738,45.898,51.758
1586550181.797,124.023,31.25,31.738,75.195,18.066
1586550181.801,-6.836,35.645,30.273,22.949,51.27
1586550181.805,-54.688,36.133,28.809,-18.555,81.055
1586550181.808,49.316,35.645,32.227,19.043,9.277
1586550181.812,151.855,29.297,30.762,60.547,21.484
1586550181.816,50.293,28.809,26.855,16.602,37.109
1586550181.82,-50.781,19.043,32.715,-15.137,-0.977
1586550181.824,1.953,12.695,29.785,7.812,30.762
1586550181.828,114.258,29.297,19.043,53.223,72.266
1586550181.832,58.594,32.227,20.508,41.992,20.508
1586550181.836,-76.66,30.273,25.879,-8.789,10.254
1586550181.84,-44.434,26.855,26.367,-0.488,10.254
1586550181.844,89.355,24.902,28.32,51.758,-4.395
1586550181.847,93.262,28.32,31.738,56.152,16.113
1586550181.851,-45.41,27.344,33.203,5.371,49.805
1586550181.855,-53.711,26.855,33.203,-10.742,23.438
1586550181.859,67.383,30.762,33.691,36.621,-20.02
1586550181.863,130.371,29.785,35.645,66.895,34.18
1586550181.867,10.254,26.855,35.645,19.043,20.02
1586550181.871,-43.945,24.414,34.668,-5.859,8.789
1586550181.875,31.25,19.531,37.598,24.902,-4.395
1586550181.879,133.301,20.996,36.621,69.336,0.977
1586550181.883,41.016,25.391,36.621,28.32,19.531
1586550181.887,-68.848,25.391,39.062,-23.438,1.953
1586550181.89,-12.207,26.367,37.598,-2.93,11.719
1586550181.894,121.094,24.902,37.109,56.152,9.766
1586550181.898,89.355,24.414,36.621,40.527,16.113
1586550181.902,-51.27,24.414,35.645,-19.043,29.297
1586550181.906,-40.527,22.949,35.156,-17.578,21.484
1586550181.91,81.543,22.461,35.645,36.621,38.086
1586550181.914,109.863,22.461,36.621,55.664,78.125
1586550181.918,-35.645,22.949,34.668,2.93,41.016
1586550181.922,-72.754,24.902,35.156,-8.789,0.488
1586550181.926,48.828,25.391,35.645,27.344,11.719
1586550181.93,134.766,24.902,32.715,57.617,52.734
1586550181.933,9.277,26.367,32.227,14.16,43.457
1586550181.937,-67.383,25.879,32.227,-23.926,-12.695
1586550181.941,9.766,24.902,33.691,7.324,46.387
1586550181.945,125.488,28.809,29.785,55.176,65.918
1586550181.949,49.316,33.203,28.32,32.227,23.926
1586550181.953,-64.941,29.785,31.738,-15.625,38.574
1586550181.957,-17.09,26.855,28.809,-2.441,-6.348
1586550181.961,108.398,27.832,30.273,49.316,40.039
1586550181.965,89.844,29.297,32.227,47.363,35.645
1586550181.969,-53.223,31.25,33.691,1.953,17.09
1586550181.972,-40.527,30.273,35.645,-11.23,8.789
1586550181.976,86.426,28.809,34.18,32.715,6.348
1586550181.98,122.07,28.809,31.738,61.035,44.434
1586550181.984,-17.578,28.809,34.668,4.883,23.438
1586550181.988,-71.289,27.832,36.133,-17.578,6.836
1586550181.992,30.273,25.879,32.227,17.09,32.227
1586550181.996,125.977,26.367,32.227,48.34,73.242
1586550182,9.277,26.855,35.645,13.184,41.992
1586550182.004,-72.754,25.879,35.645,-24.902,-14.16
1586550182.008,5.371,27.344,35.156,1.465,-10.742
1586550182.012,122.559,27.832,33.691,56.152,69.824
1586550182.015,69.336,27.344,32.715,38.086,46.387
1586550182.019,-54.688,30.273,30.762,-13.672,-7.812
1586550182.023,-33.691,30.762,31.738,-4.395,21.973
1586550182.027,91.309,27.344,35.645,54.688,11.719
1586550182.031,101.074,25.391,35.645,61.523,-0.977
1586550182.035,-46.875,25.879,36.621,-0.977,10.742
1586550182.039,-59.082,23.926,37.109,-4.395,7.812
1586550182.043,70.312,22.949,38.086,45.898,70.801
1586550182.047,128.418,25.391,37.109,62.012,47.363
1586550182.051,-5.859,26.367,37.109,16.602,-22.461
1586550182.055,-57.617,26.855,38.086,-12.207,-35.156
1586550182.058,42.48,27.832,33.203,22.461,25.879
1586550182.062,134.277,25.391,29.785,62.012,83.008
1586550182.066,31.25,25.879,33.203,28.32,4.395
1586550182.07,-65.43,26.855,35.645,-4.395,-3.906
1586550182.074,-7.324,25.391,36.133,12.207,42.969
1586550182.078,122.559,28.32,36.133,64.941,28.809
1586550182.082,85.938,29.785,36.133,57.129,34.18
1586550182.086,-51.758,27.832,37.109,-1.465,25.391
1586550182.09,-35.645,26.855,36.133,-3.418,-1.953
1586550182.094,86.914,26.855,33.203,48.828,42.969
1586550182.097,108.398,27.832,35.156,62.5,21.973
1586550182.101,-29.785,28.809,35.645,2.93,-37.109
1586550182.105,-47.363,27.832,31.738,-12.207,18.066
1586550182.109,61.523,26.367,31.738,30.762,58.105
1586550182.113,130.859,26.855,32.715,65.43,48.828
1586550182.117,11.23,25.879,33.691,22.461,26.367
1586550182.121,-59.082,27.344,33.203,-9.766,20.02
1586550182.125,21.484,30.273,32.227,20.996,32.227
1586550182.129,131.836,29.785,34.18,64.453,53.223
1586550182.133,53.223,30.273,33.691,29.297,27.344
1586550182.137,-55.664,29.785,34.668,-15.625,4.883
1586550182.14,-1.953,28.32,33.691,5.371,46.875
1586550182.144,124.512,30.762,31.25,51.758,48.34
1586550182.148,90.332,29.297,35.645,53.711,29.785
1586550182.152,-53.223,27.344,38.086,3.418,11.719
1586550182.156,-44.434,28.809,36.133,0,6.836
1586550182.16,83.496,26.855,34.18,52.734,60.059
1586550182.164,117.188,27.832,33.203,66.895,72.266
1586550182.168,-25.391,26.367,36.133,15.137,32.715
1586550182.172,-51.758,26.367,33.691,-11.719,41.992
1586550182.176,59.082,29.785,30.762,19.531,63.965
1586550182.18,145.996,28.809,33.203,62.988,60.059
1586550182.183,36.133,29.297,33.691,27.344,39.062
1586550182.187,-49.805,29.297,34.668,-2.93,-4.883
1586550182.191,22.949,30.273,35.645,19.043,-58.105
1586550182.195,146.973,29.297,32.227,57.129,26.367
1586550182.199,77.148,25.879,32.227,38.086,114.258
1586550182.203,-60.059,25.391,33.203,-8.789,47.363
1586550182.207,-30.762,28.32,31.738,1.465,27.344
1586550182.211,92.285,27.344,32.227,51.27,95.703
1586550182.215,80.078,23.438,30.762,51.758,70.801
1586550182.219,-52.734,22.461,31.25,0.488,7.812
1586550182.222,-56.641,23.926,31.25,-2.441,15.137
1586550182.226,62.012,23.926,28.32,36.621,-3.418
1586550182.23,124.512,22.949,30.762,62.988,-7.324
1586550182.234,0,24.414,31.25,16.602,7.324
1586550182.238,-53.711,24.902,29.297,-15.137,1.465
1586550182.242,44.922,22.461,30.762,18.555,-4.883
1586550182.246,143.066,21.484,30.762,62.5,-20.508
1586550182.25,44.922,25.879,29.297,33.203,-3.418
1586550182.254,-41.992,27.832,28.809,-22.461,3.906
1586550182.258,21.484,27.832,32.227,-6.836,21.973
1586550182.262,132.324,27.832,33.691,50.781,71.289
1586550182.265,70.312,29.785,34.18,38.086,13.672
1586550182.269,-67.871,29.785,34.18,-9.277,-16.113
1586550182.273,-36.133,27.832,32.715,-7.812,49.316
1586550182.277,103.027,30.273,33.203,45.41,56.152
1586550182.281,105.469,31.738,35.645,59.57,8.789
1586550182.285,-47.363,27.832,37.598,0,-44.922
1586550182.289,-61.035,28.809,38.574,-4.395,44.922
1586550182.293,64.941,31.738,36.621,47.852,76.172
1586550182.297,130.859,34.18,34.18,67.383,28.809
1586550182.301,8.301,37.598,35.156,6.348,28.32
1586550182.305,-53.711,36.133,37.598,-25.879,1.953
1586550182.308,30.762,31.25,38.086,11.23,-10.742
1586550182.312,131.348,32.715,37.109,58.594,2.93
1586550182.316,39.062,33.691,35.645,35.645,5.371
1586550182.32,-73.242,31.25,34.18,-15.137,-9.277
1586550182.324,-24.414,28.809,33.691,-5.371,-6.348
1586550182.328,116.699,32.715,33.691,44.922,42.969
1586550182.332,86.426,34.18,35.645,32.715,77.637
1586550182.336,-48.828,35.156,36.621,-17.578,11.23
1586550182.34,-32.715,36.621,34.18,-11.719,20.996
1586550182.344,88.867,32.227,34.668,41.992,52.246
1586550182.347,119.629,32.227,32.715,60.059,17.09
1586550182.351,-27.832,34.668,31.25,4.883,7.324
1586550182.355,-60.059,36.133,33.203,-9.766,35.156
1586550182.359,46.875,35.156,32.227,33.691,36.133
1586550182.363,123.047,30.762,31.738,67.871,44.922
1586550182.367,11.23,32.227,29.785,23.926,50.293
1586550182.371,-63.477,34.668,28.809,-19.043,60.547
1586550182.375,21.484,34.18,31.738,8.789,50.781
1586550182.379,136.719,36.621,32.715,59.57,29.297
1586550182.383,56.152,35.645,33.691,32.715,-9.766
1586550182.387,-69.336,34.668,35.156,-9.766,-40.527
1586550182.39,-34.18,34.18,36.621,6.836,16.602
1586550182.394,102.539,32.715,35.156,52.734,-1.953
1586550182.398,87.402,30.273,33.691,44.922,-6.836
1586550182.402,-56.152,30.762,33.203,-10.742,4.395
1586550182.406,-48.34,34.668,34.668,-11.719,-34.668
1586550182.41,76.172,33.203,36.621,39.551,-3.418
1586550182.414,120.117,32.715,34.18,57.129,0.977
1586550182.418,-19.043,30.273,36.133,8.789,-6.836
1586550182.422,-64.941,29.297,37.109,-17.578,39.062
1586550182.426,39.551,30.273,35.156,23.926,33.691
1586550182.43,131.836,31.738,38.086,76.66,30.273
1586550182.433,19.043,30.762,36.621,30.273,33.691
1586550182.437,-70.801,29.297,33.203,-21.484,-24.902
1586550182.441,-2.441,30.273,35.645,9.277,4.395
1586550182.445,116.211,27.344,36.133,67.871,64.453
1586550182.449,64.453,28.809,33.691,47.363,59.082
1586550182.453,-61.523,27.344,37.109,-6.348,36.621
1586550182.457,-26.367,26.367,39.062,6.348,21.973
1586550182.461,106.445,27.344,37.598,63.965,68.848
1586550182.465,106.445,26.855,39.062,71.777,101.074
1586550182.469,-36.621,27.344,38.574,12.207,31.25
1586550182.472,-48.34,27.344,35.645,-1.953,-20.508
1586550182.476,75.195,25.879,32.715,42.48,43.457
1586550182.48,133.301,29.297,34.668,67.871,38.086
1586550182.484,-6.348,32.227,36.133,12.207,-10.742
1586550182.488,-59.082,29.785,35.156,-17.09,22.949
1586550182.492,31.738,27.344,31.738,15.625,3.906
1586550182.496,131.348,26.855,30.762,55.176,-4.883
1586550182.5,38.574,26.855,35.156,31.25,34.18
1586550182.504,-72.754,26.855,35.645,-14.16,9.766
1586550182.508,-10.742,27.344,33.691,3.906,15.625
1586550182.512,117.188,26.367,33.691,58.594,25.391
1586550182.515,67.871,26.855,30.273,43.945,23.926
1586550182.519,-64.453,24.414,28.32,-22.949,24.414
1586550182.523,-34.18,25.391,28.809,-23.926,-2.93
1586550182.527,88.379,24.414,30.273,44.922,37.598
1586550182.531,105.469,20.996,32.227,62.012,60.547
1586550182.535,-25.391,21.973,32.715,-0.977,39.062
1586550182.539,-53.223,23.926,32.715,-16.602,27.832
1586550182.543,59.082,25.879,33.203,32.715,1.953
1586550182.547,137.695,30.273,33.691,70.801,1.465
1586550182.551,18.066,29.785,34.668,24.902,9.277
1586550182.555,-50.293,27.344,32.227,-8.789,12.207
1586550182.558,32.715,27.832,32.715,24.414,13.672
1586550182.562,140.137,27.344,33.203,66.895,39.551
1586550182.566,48.34,27.832,31.738,39.062,67.871
1586550182.57,-71.289,28.32,32.227,-2.93,27.832
1586550182.574,-19.043,30.762,32.227,5.859,-16.602
1586550182.578,111.816,29.297,33.203,45.898,-16.113
1586550182.582,78.613,26.367,32.715,36.621,-8.789
1586550182.586,-58.105,26.367,28.809,-10.742,-30.273
1586550182.59,-45.898,25.391,28.32,-7.812,-20.508
1586550182.594,83.984,26.367,28.32,42.48,22.461
1586550182.597,122.07,26.855,31.738,64.941,24.902
1586550182.601,-15.137,27.344,35.645,8.789,-10.254
1586550182.605,-42.969,30.273,30.273,-10.254,-28.32
1586550182.609,69.824,30.762,29.785,43.945,-51.758
1586550182.613,139.648,27.832,37.109,81.055,12.695
1586550182.617,5.859,23.926,41.016,25.391,71.777
1586550182.621,-76.66,24.902,39.551,-8.301,14.16
1586550182.625,-0.977,25.879,37.598,25.879,-10.254
1586550182.629,132.324,28.809,37.109,67.871,14.648
1586550182.633,80.078,36.133,36.133,40.039,15.137
1586550182.637,-44.922,38.574,36.621,-13.672,-31.738
1586550182.64,-8.789,33.203,37.598,-3.418,-10.254
1586550182.644,111.816,32.715,36.621,57.617,48.34
1586550182.648,86.426,33.203,37.598,64.453,58.105
1586550182.652,-53.711,30.273,37.109,3.418,37.109
1586550182.656,-48.828,31.25,35.156,-2.93,25.879
1586550182.66,66.895,29.785,35.156,45.898,58.594
1586550182.664,121.094,27.832,34.668,78.125,78.613
1586550182.668,4.395,29.297,36.133,26.367,63.477
1586550182.672,-40.527,28.809,36.621,-5.371,-3.906
1586550182.676,47.852,25.391,32.715,27.832,-6.348
1586550182.68,140.625,22.461,33.691,63.965,58.105
1586550182.683,44.434,21.973,36.133,26.367,55.176
1586550182.687,-57.129,19.043,37.598,-17.578,97.168
1586550182.691,-1.465,16.602,37.109,8.301,76.172
1586550182.695,120.117,18.066,34.18,62.012,68.359
1586550182.699,67.871,18.555,34.18,49.316,91.797
1586550182.703,-57.129,21.973,35.156,-2.93,42.969
1586550182.707,-25.879,23.438,34.18,-0.977,35.645
1586550182.711,100.098,18.555,29.297,46.875,5.371
1586550182.715,104.98,19.043,29.785,47.852,-9.277
1586550182.719,-49.316,18.555,29.785,-5.371,29.785
1586550182.722,-77.637,18.066,29.785,-8.789,52.734
1586550182.726,39.551,20.508,31.738,32.715,41.016
1586550182.73,121.582,24.414,31.25,58.105,20.996
1586550182.734,2.441,26.855,32.227,14.648,31.25
1586550182.738,-77.148,25.391,30.762,-17.09,21.973
1586550182.742,8.301,24.902,28.32,7.812,1.465
1586550182.746,124.512,26.367,28.809,55.176,8.789
1586550182.75,33.203,27.344,28.32,27.344,34.18
1586550182.754,-71.777,26.367,29.785,-15.625,38.574
1586550182.758,-14.16,25.391,30.273,5.371,46.875
1586550182.762,105.957,25.391,27.344,49.805,47.363
1586550182.765,73.73,23.926,25.879,35.156,64.453
1586550182.769,-52.246,29.297,26.367,-19.531,39.551
1586550182.773,-33.691,29.785,26.367,-23.926,51.758
1586550182.777,86.914,27.832,26.367,29.297,67.383
1586550182.781,109.863,29.785,30.273,52.246,17.09
1586550182.785,-29.297,28.809,29.297,0.977,-7.324
1586550182.789,-66.895,26.855,25.879,-20.508,-52.734
1586550182.793,40.039,27.832,27.832,27.344,-44.922
1586550182.797,124.023,29.297,28.809,62.5,5.859
1586550182.801,9.766,27.832,29.297,15.625,-37.598
1586550182.805,-69.824,28.32,29.785,-17.578,-74.219
1586550182.808,16.602,27.832,31.25,5.859,-13.672
1586550182.812,139.16,26.367,30.273,63.477,-8.301
1586550182.816,53.223,26.855,30.273,40.527,-13.184
1586550182.82,-75.684,28.32,31.25,-13.184,42.48
1586550182.824,-31.738,28.32,27.832,7.812,24.414
1586550182.828,94.727,26.855,25.879,62.5,57.617
1586550182.832,90.82,29.785,27.344,54.199,103.027
1586550182.836,-42.969,33.691,27.344,-7.324,32.715
1586550182.84,-50.293,31.25,29.785,-12.695,-13.672
1586550182.844,80.566,29.297,31.25,39.062,-48.34
1586550182.847,128.418,34.18,29.785,58.105,-10.254
1586550182.851,-12.207,35.156,30.273,-0.977,93.262
1586550182.855,-58.594,33.691,32.227,-15.625,53.223
1586550182.859,47.363,37.598,32.227,20.508,48.34
1586550182.863,125.977,33.691,32.715,50.293,20.508
1586550182.867,7.812,29.297,32.715,18.066,-17.09
1586550182.871,-68.848,33.691,30.762,-20.996,17.578
1586550182.875,9.766,35.156,28.809,-0.488,-27.344
1586550182.879,128.906,33.691,29.785,47.363,-11.23
1586550182.883,74.219,34.18,30.762,34.18,80.566
1586550182.887,-53.711,35.156,29.785,-7.324,73.73
1586550182.89,-29.297,33.691,28.32,-7.812,45.898
1586550182.894,91.797,34.18,30.762,42.969,39.062
1586550182.898,95.703,34.668,32.715,60.059,-1.953
1586550182.902,-30.762,35.645,32.715,-4.395,12.695
1586550182.906,-45.898,34.668,32.715,-29.785,30.273
1586550182.91,71.777,36.133,28.32,22.949,5.371
1586550182.914,125.977,41.016,27.832,64.453,2.441
1586550182.918,-10.254,40.039,33.691,18.066,-26.367
1586550182.922,-63.477,37.109,33.203,-8.789,25.391
1586550182.926,36.133,35.156,32.715,24.414,24.902
1586550182.93,144.043,36.621,32.227,64.453,0.488
1586550182.933,39.551,39.062,32.715,36.133,57.617
1586550182.937,-69.824,35.156,34.18,-17.09,14.648
1586550182.941,-1.465,34.18,30.273,-1.465,-14.648
1586550182.945,127.93,36.621,27.344,65.43,13.184
1586550182.949,80.078,33.203,26.855,44.922,32.715
1586550182.953,-57.129,30.762,29.785,-23.926,31.738
1586550182.957,-34.668,32.715,32.715,-9.277,21.484
1586550182.961,91.797,33.691,28.32,49.316,24.414
1586550182.965,110.352,33.203,27.832,59.57,38.086
1586550182.969,-23.438,33.691,27.832,9.277,27.832
1586550182.972,-51.758,32.715,26.367,-2.441,2.441
1586550182.976,52.734,32.715,25.879,34.18,26.367
1586550182.98,122.07,32.227,25.391,70.801,38.086
1586550182.984,-0.977,28.809,30.273,25.879,18.066
1586550182.988,-73.73,29.297,31.738,-18.555,21.973
1586550182.992,14.648,31.25,32.227,13.184,39.062
1586550182.996,135.742,27.344,34.668,62.5,84.961
1586550183,57.129,27.832,31.738,35.645,54.688
1586550183.004,-55.664,30.273,29.785,-15.137,-32.227
1586550183.008,-1.953,29.785,33.691,3.418,-60.547
1586550183.012,139.16,32.715,35.645,64.941,-4.395
1586550183.015,115.234,34.668,31.738,56.152,53.711
1586550183.019,-35.156,31.738,33.203,-7.812,69.336
1586550183.023,-38.086,29.785,36.133,-8.789,70.312
1586550183.027,78.125,29.785,34.18,47.363,81.055
1586550183.031,116.699,32.227,35.645,72.754,145.508
1586550183.035,-13.184,30.273,36.133,18.555,108.887
1586550183.039,-51.758,26.367,37.598,-5.859,24.902
1586550183.043,59.57,27.832,38.086,40.527,-2.441
1586550183.047,142.09,26.855,36.621,71.777,-10.742
1586550183.051,25.391,23.926,37.109,20.508,27.832
1586550183.055,-62.012,24.414,34.668,-16.113,59.082
1586550183.058,12.695,28.809,35.156,18.555,74.707
1586550183.062,123.535,27.832,34.668,68.848,76.172
1586550183.066,50.781,23.438,34.18,45.41,14.16
1586550183.07,-62.012,22.461,35.156,-5.859,-45.898
1586550183.074,-22.461,23.926,35.645,-1.953,-2.441
1586550183.078,103.516,24.902,38.574,45.898,59.57
1586550183.082,86.914,23.926,39.551,48.34,50.293
1586550183.086,-50.781,25.391,35.645,-7.812,-26.855
1586550183.09,-51.27,26.855,30.273,-12.207,-39.062
1586550183.094,66.406,25.391,33.691,43.945,-9.766
1586550183.097,121.094,25.879,34.18,69.824,35.156
1586550183.101,-6.836,27.832,31.25,10.254,86.426
1586550183.105,-61.035,26.367,33.203,-23.438,60.547
1586550183.109,27.344,29.297,29.785,13.672,38.086
1586550183.113,122.07,32.227,31.738,60.059,-10.254
1586550183.117,14.648,28.809,32.715,16.113,-27.832
1586550183.121,-84.961,26.367,29.297,-36.133,-29.785
1586550183.125,-16.602,27.344,30.273,-20.996,-7.324
1586550183.129,104.98,29.297,32.227,31.25,33.691
1586550183.133,50.781,29.785,37.598,25.879,20.02
1586550183.137,-88.867,28.32,41.016,-29.297,4.883
1586550183.14,-69.336,28.809,38.574,-30.273,11.719
1586550183.144,66.895,31.738,33.691,16.602,16.113
1586550183.148,77.637,30.273,33.203,34.668,13.672
1586550183.152,-64.941,29.785,35.156,-16.602,28.809
1586550183.156,-78.125,30.762,30.273,-32.227,60.059
1586550183.16,41.016,29.297,27.832,20.02,50.293
1586550183.164,113.281,31.25,26.855,47.852,24.902
1586550183.168,-10.742,32.227,26.367,-0.488,20.02
1586550183.172,-65.43,27.344,27.832,-25.391,-3.418
1586550183.176,25.879,28.809,26.855,6.348,-14.16
1586550183.18,116.699,34.18,29.297,55.176,58.105
1586550183.183,23.438,28.32,33.203,27.344,34.668
1586550183.187,-88.867,21.973,35.645,-8.301,-26.367
1586550183.191,-29.785,23.438,34.18,14.648,32.715
1586550183.195,113.77,25.879,29.297,61.523,106.445
1586550183.199,87.891,26.855,34.18,55.176,83.008
1586550183.203,-47.852,24.902,26.855,0.488,2.441
1586550183.207,-30.273,25.391,11.23,2.93,-2.93
1586550183.211,92.285,30.273,23.926,47.852,62.012
1586550183.215,116.699,31.738,41.504,57.617,53.223
1586550183.219,-33.691,26.855,45.898,8.301,10.254
1586550183.222,-77.148,23.926,41.992,-7.324,10.254
1586550183.226,40.527,25.879,37.109,26.855,80.566
1586550183.23,131.348,21.973,34.18,59.57,39.551
1586550183.234,12.695,24.414,27.344,24.414,15.625
1586550183.238,-67.871,26.367,25.391,-10.742,42.969
1586550183.242,13.672,22.949,25.391,20.996,32.227
1586550183.246,132.812,23.926,25.879,66.406,73.73
1586550183.25,60.059,26.855,33.203,30.273,94.727
1586550183.254,-54.199,31.738,34.18,-20.02,34.18
1586550183.258,-7.324,31.738,34.668,0.977,-22.949
1586550183.262,125.977,33.203,28.32,56.641,37.598
1586550183.265,110.84,34.18,15.625,60.059,46.875
1586550183.269,-36.133,29.785,18.555,7.812,16.602
1586550183.273,-34.668,31.738,29.297,-0.488,15.625
1586550183.277,91.797,31.738,32.227,39.062,-14.16
1586550183.281,127.93,28.809,23.926,62.012,0
1586550183.285,-13.184,28.32,16.113,6.348,-6.348
1586550183.289,-50.781,27.832,21.973,-15.625,-0.488
1586550183.293,53.711,27.832,25.879,32.227,7.812
1586550183.297,139.16,30.273,32.227,74.707,13.184
1586550183.301,28.32,30.273,38.574,34.18,28.32
1586550183.305,-54.199,28.32,33.691,-12.207,5.371
1586550183.308,17.578,24.902,32.715,5.371,13.672
1586550183.312,128.906,24.902,32.227,54.199,59.082
1586550183.316,67.871,26.855,27.832,41.992,4.395
1586550183.32,-62.988,26.855,30.762,-6.836,-41.016
1586550183.324,-41.992,27.344,31.25,-0.488,44.434
1586550183.328,89.355,28.809,28.809,44.922,80.078
1586550183.332,92.285,28.809,30.273,39.062,51.27
1586550183.336,-45.41,27.832,30.762,-16.113,28.809
1586550183.34,-56.641,27.344,29.297,-20.996,-5.859
1586550183.344,61.035,30.273,28.809,31.738,56.641
1586550183.347,119.141,34.668,26.855,67.383,92.773
1586550183.351,-12.207,29.785,32.715,14.648,41.992
1586550183.355,-63.965,25.879,40.039,-19.043,23.926
1586550183.359,33.203,25.879,38.574,19.043,-0.488
1586550183.363,135.254,26.367,37.109,67.383,58.105
1586550183.367,40.527,26.855,39.551,29.297,67.383
1586550183.371,-61.523,28.809,37.598,-26.855,42.969
1586550183.375,-8.301,30.273,34.18,-5.859,75.195
1586550183.379,113.281,28.32,32.227,54.688,85.449
1586550183.383,66.406,31.25,32.715,39.551,78.613
1586550183.387,-63.965,30.762,35.156,-10.254,6.348
1586550183.39,-37.598,25.879,34.18,-1.465,-30.273
1586550183.394,98.633,27.832,35.645,50.781,12.207
1586550183.398,116.699,32.715,34.18,62.012,58.594
1586550183.402,-37.598,32.715,30.273,2.93,2.441
1586550183.406,-52.246,26.855,31.25,-15.137,28.32
1586550183.41,67.383,26.367,30.762,29.785,56.641
1586550183.414,137.695,31.25,28.809,62.5,9.766
1586550183.418,17.578,30.762,28.809,21.973,5.859
1586550183.422,-56.152,30.273,32.227,-5.859,-28.32
1586550183.426,37.598,29.785,32.227,25.391,-4.395
1586550183.43,151.367,29.785,35.645,66.406,16.113
1586550183.433,55.176,30.273,36.133,23.926,15.137
1586550183.437,-68.359,27.344,34.18,-20.02,11.23
1586550183.441,-16.602,29.297,32.715,1.465,44.922
1586550183.445,115.723,31.25,32.227,46.387,80.078
1586550183.449,74.219,29.785,31.738,37.598,43.457
1586550183.453,-79.59,29.297,29.785,-16.113,9.277
1586550183.457,-62.012,29.297,31.25,-8.789,-25.879
1586550183.461,72.754,28.32,33.203,55.664,0.488
1586550183.465,111.816,31.25,33.203,74.219,31.25
1586550183.469,-20.508,32.715,29.297,11.23,14.16
1586550183.472,-55.664,27.832,28.809,-12.207,-6.348
1586550183.476,62.012,27.832,31.25,30.762,1.465
1586550183.48,147.461,27.832,30.762,67.871,14.648
1586550183.484,7.812,22.461,31.738,25.879,1.953
1586550183.488,-74.219,22.461,32.227,-11.719,-0.977
1586550183.492,8.789,23.926,32.715,9.766,-20.508
1586550183.496,117.676,20.996,29.297,57.129,17.578
1586550183.5,58.594,20.996,24.902,42.48,63.965
1586550183.504,-61.035,23.438,29.297,-3.906,-3.906
1586550183.508,-20.996,24.414,35.645,5.859,19.531
1586550183.512,116.211,25.879,34.668,55.176,52.246
1586550183.515,106.934,27.344,32.227,53.223,7.812
1586550183.519,-29.297,27.832,31.738,-0.488,-46.875
1586550183.523,-31.738,30.762,30.762,-8.789,36.621
1586550183.527,80.078,31.738,29.785,41.016,68.848
1586550183.531,115.723,29.297,31.25,69.336,60.547
1586550183.535,-26.367,29.297,33.691,18.555,30.273
1586550183.539,-77.637,31.25,35.645,-4.883,-24.902
1586550183.543,20.02,30.762,35.156,32.227,-9.277
1586550183.547,121.094,28.809,31.738,69.336,-36.621
1586550183.551,14.648,26.855,35.156,32.227,20.508
1586550183.555,-79.102,26.855,35.156,-7.324,70.801
1586550183.558,4.883,30.273,33.203,20.508,27.832
1586550183.562,124.023,34.18,39.551,64.453,32.227
1586550183.566,65.43,32.227,36.621,34.18,68.359
1586550183.57,-60.059,30.273,28.809,-7.812,83.496
1586550183.574,-31.25,29.297,31.25,-0.488,22.949
1586550183.578,95.215,26.855,36.133,44.434,14.16
1586550183.582,100.098,26.855,38.086,60.547,40.527
1586550183.586,-40.039,28.809,39.551,14.16,-12.207
1586550183.59,-53.223,28.809,40.527,0,-20.996
1586550183.594,62.012,24.902,37.598,36.621,-8.301
1586550183.597,126.953,22.949,35.156,71.289,14.16
1586550183.601,6.348,28.32,33.203,23.438,38.574
1586550183.605,-55.176,27.344,32.715,-17.578,36.621
1586550183.609,32.227,26.855,31.25,12.695,41.504
1586550183.613,143.066,30.273,30.273,66.895,4.883
1586550183.617,51.27,27.344,33.691,44.922,-52.734
1586550183.621,-59.57,28.809,33.691,-10.254,27.832
1586550183.625,-3.906,29.297,29.785,0,23.926
1586550183.629,124.023,27.832,28.809,53.223,-28.32
1586550183.633,90.332,30.273,30.273,42.969,14.648
1586550183.637,-50.293,29.297,30.273,-2.441,36.133
1586550183.64,-37.598,29.297,33.203,1.953,52.734
1586550183.644,82.031,29.785,34.668,42.48,26.855
1586550183.648,105.957,27.344,33.203,53.711,2.441
1586550183.652,-18.555,30.762,29.785,1.465,-28.32
1586550183.656,-38.086,33.203,27.832,-5.371,13.184
1586550183.66,65.43,28.809,30.273,36.621,20.508
1586550183.664,135.254,26.855,32.227,63.477,-15.137
1586550183.668,16.602,30.273,30.762,16.113,12.695
1586550183.672,-50.781,29.297,29.297,-20.996,18.066
1586550183.676,33.691,30.762,27.832,8.789,0.488
1586550183.68,143.066,31.25,28.809,60.059,58.105
1586550183.683,53.223,25.879,33.203,35.156,89.355
1586550183.687,-75.684,24.414,37.109,-15.625,57.129
1586550183.691,-23.438,25.391,37.598,2.93,41.016
1586550183.695,110.84,27.832,40.527,57.617,58.105
1586550183.699,102.539,32.227,41.016,54.199,77.637
1586550183.703,-32.227,29.297,37.109,-0.488,54.688
1586550183.707,-46.875,28.809,34.668,-0.977,73.73
1586550183.711,77.148,29.785,36.133,43.945,41.992
1586550183.715,133.789,26.367,39.551,62.988,23.438
1586550183.719,-4.395,27.832,39.551,19.043,31.738
1586550183.722,-54.688,29.297,38.086,-4.395,29.785
1586550183.726,42.969,27.344,37.598,34.668,20.508
1586550183.73,133.789,26.367,37.598,74.707,24.414
1586550183.734,24.902,29.785,35.156,24.414,13.184
1586550183.738,-71.777,29.785,31.25,-26.855,15.137
1586550183.742,-5.371,26.855,32.715,-10.742,44.434
1586550183.746,117.188,24.414,30.273,39.062,52.734
1586550183.75,69.824,26.367,27.832,32.715,69.824
1586550183.754,-49.316,27.344,29.297,-13.672,45.898
1586550183.758,-23.926,26.855,29.785,-2.441,64.941
1586550183.762,100.098,26.367,33.203,51.27,55.664
1586550183.765,103.027,24.902,36.133,52.734,-18.066
1586550183.769,-44.922,26.367,33.203,-3.418,-26.855
1586550183.773,-61.035,27.832,32.227,-15.137,-28.32
1586550183.777,57.129,25.879,29.785,31.738,7.812
1586550183.781,108.887,24.902,27.832,58.105,6.836
1586550183.785,-12.695,25.879,33.691,9.766,-40.039
1586550183.789,-55.664,26.855,41.016,-14.16,1.953
1586550183.793,44.434,29.297,37.109,25.391,15.625
1586550183.797,144.043,26.367,28.32,74.219,27.344
1586550183.801,42.969,22.949,32.715,37.598,3.906
1586550183.805,-52.246,21.973,34.668,-17.578,-37.598
1586550183.808,7.812,24.414,28.32,8.301,-41.992
1586550183.812,127.441,25.879,29.785,66.406,-24.902
1586550183.816,80.566,24.902,41.016,44.434,18.555
1586550183.82,-53.223,25.879,40.527,-14.16,32.227
1586550183.824,-23.438,26.855,35.156,2.441,14.16
1586550183.828,109.375,28.32,30.762,61.035,17.578
1586550183.832,123.535,29.297,30.762,68.359,55.664
1586550183.836,-15.625,29.785,36.133,13.184,10.254
1586550183.84,-46.875,29.785,33.691,3.906,-11.23
1586550183.844,53.223,25.879,30.273,51.27,19.043
1586550183.847,123.535,26.855,34.18,60.547,61.035
1586550183.851,3.906,28.32,35.645,5.859,100.098
1586550183.855,-59.082,28.32,30.273,-23.438,65.43
1586550183.859,33.691,31.25,30.762,-3.906,1.465
1586550183.863,150.391,33.203,37.598,49.316,32.715
1586550183.867,51.758,34.18,35.156,25.879,97.168
1586550183.871,-66.406,27.832,33.691,-18.066,39.551
1586550183.875,-2.441,25.391,35.645,-3.906,22.949
1586550183.879,129.395,28.32,35.645,40.039,42.48
1586550183.883,94.727,27.344,32.715,40.039,28.809
1586550183.887,-48.34,31.25,24.414,-9.766,46.387
1586550183.89,-35.156,31.738,27.832,0,43.945
1586550183.894,92.285,30.762,36.621,34.668,9.766
1586550183.898,116.211,28.809,35.645,34.18,52.246
1586550183.902,-32.227,27.832,33.691,0,57.129
1586550183.906,-64.941,29.785,29.297,-10.254,-2.441
1586550183.91,42.48,29.297,26.367,20.508,6.348
1586550183.914,122.559,30.762,25.879,65.918,34.668
1586550183.918,4.883,32.715,24.902,32.227,20.02
1586550183.922,-79.59,28.809,27.344,-28.32,58.105
1586550183.926,1.953,26.855,32.227,-10.254,87.891
1586550183.93,127.93,28.32,35.156,54.199,34.668
1586550183.933,69.336,30.762,29.297,34.18,5.371
1586550183.937,-47.852,33.691,20.508,-3.418,38.086
1586550183.941,-7.324,33.203,26.855,5.859,1.953
1586550183.945,116.699,33.203,36.133,54.688,-32.227
1586550183.949,98.145,30.762,37.109,54.688,24.414
1586550183.953,-53.711,28.32,37.598,-12.207,36.133
1586550183.957,-65.918,28.32,33.691,-18.555,37.598
1586550183.961,66.406,30.273,31.738,28.32,21.484
1586550183.965,123.047,30.273,34.18,67.383,49.805
1586550183.969,-16.602,29.297,29.297,16.602,-26.855
1586550183.972,-64.941,29.297,28.32,-21.484,-71.777
1586550183.976,34.668,30.762,32.227,17.578,-6.348
1586550183.98,126.953,33.691,32.715,60.547,19.043
1586550183.984,23.438,29.785,35.645,31.25,13.672
1586550183.988,-73.242,28.809,33.691,-4.883,29.785
1586550183.992,-6.348,29.785,30.762,12.207,68.848
1586550183.996,127.441,28.809,34.18,60.059,52.734
1586550184,82.52,30.762,38.086,47.852,73.73
1586550184.004,-46.875,32.715,35.645,2.441,99.609
1586550184.008,-28.809,32.227,27.344,12.695,67.383
1586550184.012,100.586,31.738,31.25,71.289,40.039
1586550184.015,114.258,34.668,45.41,70.312,57.129
1586550184.019,-36.621,31.738,49.316,-0.977,35.645
1586550184.023,-61.523,26.367,43.945,-14.16,37.109
1586550184.027,49.316,24.902,38.574,37.598,23.438
1586550184.031,113.77,25.879,39.551,69.336,-20.996
1586550184.035,-12.207,29.297,39.551,13.672,-0.977
1586550184.039,-82.031,25.879,36.133,-23.926,-5.371
1586550184.043,7.812,22.461,35.645,16.602,-17.578
1586550184.047,123.047,26.855,33.691,61.035,12.207
1586550184.051,30.762,25.391,31.25,27.832,10.254
1586550184.055,-75.684,24.902,38.574,-24.414,16.602
1586550184.058,-9.277,27.832,43.457,-7.324,7.812
1586550184.062,121.094,25.879,40.039,49.316,29.297
1586550184.066,95.215,26.855,43.457,47.852,54.199
1586550184.07,-42.48,27.832,42.969,0.488,29.297
1586550184.074,-41.504,26.855,37.598,-1.465,30.762
1586550184.078,76.66,25.879,36.621,47.852,26.855
1586550184.082,105.469,23.926,37.598,66.406,-5.859
1586550184.086,-26.855,25.391,40.527,4.883,-15.625
1586550184.09,-60.059,26.367,40.039,-8.301,33.203
1586550184.094,41.016,24.414,35.645,41.504,34.18
1586550184.097,116.211,25.879,38.574,73.73,58.594
1586550184.101,10.742,26.367,40.527,17.578,63.965
1586550184.105,-58.105,25.391,36.133,-22.461,1.953
1586550184.109,18.555,28.32,38.574,16.113,-9.277
1586550184.113,130.859,30.762,39.551,66.895,0
1586550184.117,48.828,25.879,33.691,41.992,-20.996
1586550184.121,-56.152,27.344,32.715,-2.441,3.418
1586550184.125,1.953,29.785,34.668,9.277,-34.18
1586550184.129,125.488,25.391,34.18,65.43,-22.949
1586550184.133,110.84,27.344,31.738,62.988,66.895
1586550184.137,-30.273,27.832,27.344,11.719,14.16
1586550184.14,-31.738,27.344,32.227,-0.977,-24.902
1586550184.144,86.426,27.344,38.086,29.297,-23.438
1586550184.148,112.793,24.414,40.039,57.617,-12.207
1586550184.152,-38.574,22.949,39.062,11.23,29.785
1586550184.156,-82.031,23.438,39.551,-16.602,52.734
1586550184.16,34.668,22.461,38.574,21.973,40.527
1586550184.164,126.953,21.484,37.109,59.57,19.043
1586550184.168,23.438,24.902,35.645,19.043,-3.906
1586550184.172,-72.266,26.367,32.715,-23.438,-47.363
1586550184.176,-17.578,26.855,33.691,10.742,7.324
1586550184.18,113.77,26.367,35.645,72.754,34.668
1586550184.183,63.477,26.855,38.574,54.199,15.625
1586550184.187,-62.012,33.691,36.621,1.465,44.922
1586550184.191,-29.785,33.203,37.109,11.23,21.484
1586550184.195,103.027,31.25,38.574,57.617,-28.32
1586550184.199,110.352,33.203,36.133,60.059,22.949
1586550184.203,-37.598,32.227,35.156,8.301,13.672
1586550184.207,-45.898,29.785,35.645,-4.883,25.879
1586550184.211,78.125,30.273,33.203,35.645,28.809
1586550184.215,146.484,34.668,29.785,60.547,-1.465
1586550184.219,18.066,35.645,37.598,13.184,25.879
1586550184.222,-52.734,29.297,41.016,-9.277,32.715
1586550184.226,35.156,25.391,34.668,18.066,36.133
1586550184.23,131.836,28.809,34.668,52.734,25.391
1586550184.234,38.574,28.809,36.621,26.855,38.086
1586550184.238,-59.082,27.832,35.645,-15.625,73.242
1586550184.242,-1.953,30.273,34.668,7.324,47.852
1586550184.246,127.441,30.762,33.203,69.824,54.199
1586550184.25,80.078,30.762,30.762,56.641,24.902
1586550184.254,-63.477,31.25,32.227,-5.859,41.504
1586550184.258,-38.086,28.809,37.109,-2.441,102.539
1586550184.262,96.191,27.344,39.551,52.246,51.27
1586550184.265,112.305,29.297,36.133,64.941,46.875
1586550184.269,-27.832,28.32,31.25,7.812,54.199
1586550184.273,-52.246,25.879,28.809,-1.465,21.973
1586550184.277,55.664,28.32,28.809,38.574,9.277
1586550184.281,125.488,29.785,30.762,63.477,17.09
1586550184.285,-2.441,26.855,32.715,25.391,52.734
1586550184.289,-71.777,27.832,31.738,-1.953,32.227
1586550184.293,11.23,28.809,29.297,17.09,15.137
1586550184.297,116.699,25.879,28.32,53.223,58.105
1586550184.301,36.133,25.391,29.785,23.438,106.934
1586550184.305,-68.848,27.832,31.25,-37.109,60.059
1586550184.308,-7.812,29.297,29.297,-15.137,21.484
1586550184.312,119.629,27.344,29.297,51.758,37.598
1586550184.316,83.496,25.879,36.621,46.875,0.977
1586550184.32,-53.711,29.297,39.551,-6.836,-11.719
1586550184.324,-40.527,24.902,35.645,-4.395,10.254
1586550184.328,79.102,21.973,35.645,48.34,10.742
1586550184.332,111.816,29.785,35.156,51.758,37.109
1586550184.336,-18.555,27.832,34.668,-1.465,97.168
1586550184.34,-52.734,26.367,35.156,-10.742,75.684
1586550184.344,37.109,26.367,33.203,29.297,-9.277
1586550184.347,119.629,23.926,28.809,66.895,-19.531
1586550184.351,15.137,28.809,29.297,24.414,-7.812
1586550184.355,-56.641,28.32,34.668,-8.301,39.062
1586550184.359,25.879,27.344,37.109,20.996,62.5
1586550184.363,141.602,27.832,35.156,71.289,68.848
1586550184.367,71.777,26.855,33.691,58.594,25.391
1586550184.371,-51.27,25.879,32.715,6.348,-18.555
1586550184.375,-13.184,25.391,32.715,3.418,-2.93
1586550184.379,110.84,26.855,31.738,51.27,8.301
1586550184.383,91.797,26.855,31.738,41.504,20.02
1586550184.387,-47.363,23.926,35.156,-11.23,11.719
1586550184.39,-45.898,23.926,34.668,-12.695,-25.879
1586550184.394,71.289,22.949,28.809,29.297,-22.949
1586550184.398,125.488,20.508,29.297,52.734,63.965
1586550184.402,-9.277,22.949,31.738,5.371,60.059
1586550184.406,-63.477,25.391,33.203,-14.648,-18.066
1586550184.41,32.715,22.949,30.273,22.461,19.531
1586550184.414,129.395,21.973,29.785,64.941,33.203
1586550184.418,26.367,21.484,33.203,29.785,35.645
1586550184.422,-75.195,21.484,34.668,-16.113,49.805
1586550184.426,-5.859,22.949,34.18,10.254,19.043
1586550184.43,123.535,23.926,28.809,70.801,63.477
1586550184.433,66.895,25.879,31.738,57.129,61.035
1586550184.437,-61.035,25.879,39.062,-0.977,23.926
1586550184.441,-31.738,24.414,40.527,-3.418,43.457
1586550184.445,88.867,25.879,40.039,44.434,96.191
1586550184.449,90.82,23.926,40.527,54.688,28.809
1586550184.453,-51.27,22.461,41.992,3.418,-30.762
1586550184.457,-60.059,22.949,41.016,-10.254,38.086
1586550184.461,67.871,24.902,39.551,29.297,42.969
1586550184.465,145.508,30.762,39.551,54.688,63.477
1586550184.469,14.16,30.273,39.551,8.789,23.438
1586550184.472,-63.477,27.832,39.551,-15.625,-30.762
1586550184.476,27.832,29.297,39.062,30.762,44.922
1586550184.48,142.09,29.785,36.621,79.102,23.438
1586550184.484,56.641,31.738,32.715,32.715,-75.195
1586550184.488,-58.594,31.25,30.762,-16.113,26.855
1586550184.492,-12.207,31.738,31.25,5.371,55.176
1586550184.496,123.535,32.715,32.715,52.246,13.672
1586550184.5,96.68,29.297,32.715,47.363,23.926
1586550184.504,-41.016,29.785,35.156,-1.953,61.035
1586550184.508,-42.48,30.762,41.504,-6.836,54.199
1586550184.512,75.684,31.25,41.992,49.805,66.406
1586550184.515,105.957,33.203,41.016,59.57,95.703
1586550184.519,-26.367,36.621,40.039,3.906,47.852
1586550184.523,-56.641,36.621,37.109,-1.953,8.301
1586550184.527,51.758,33.691,42.48,27.344,10.254
1586550184.531,133.301,33.691,45.41,51.758,40.039
1586550184.535,19.531,32.715,37.598,13.672,12.207
1586550184.539,-48.34,29.785,30.762,-10.254,-1.953
1586550184.543,24.414,26.855,27.832,20.508,5.371
1586550184.547,133.301,24.414,32.227,66.406,-33.203
1586550184.551,71.777,26.855,43.945,37.109,-21.484
1586550184.555,-39.062,30.273,43.457,-24.414,12.695
1586550184.558,-0.977,29.785,39.551,-11.23,39.062
1586550184.562,113.77,27.832,39.062,53.223,40.527
1586550184.566,87.891,29.785,38.086,58.594,12.695
1586550184.57,-41.992,31.738,37.109,6.348,-23.438
1586550184.574,-24.414,28.809,36.133,-2.93,-4.883
1586550184.578,90.82,24.414,38.574,29.785,14.16
1586550184.582,121.582,25.391,40.039,58.105,19.531
1586550184.586,-12.207,25.391,40.039,15.625,25.391
1586550184.59,-58.105,22.461,34.668,-18.066,36.133
1586550184.594,48.34,23.438,33.203,19.043,68.848
1586550184.597,145.508,25.391,32.227,54.199,13.184
1586550184.601,37.109,27.832,30.762,16.602,11.719
1586550184.605,-61.035,27.344,33.203,-15.625,83.008
1586550184.609,8.789,27.344,34.18,12.695,56.641
1586550184.613,127.93,26.367,35.156,63.477,30.762
1586550184.617,64.941,24.414,35.645,44.922,15.137
1586550184.621,-61.035,27.344,37.598,-9.277,23.926
1586550184.625,-22.949,26.855,33.691,-0.977,47.363
1586550184.629,109.375,23.438,26.855,61.523,39.062
1586550184.633,100.586,24.902,31.738,60.547,6.348
1586550184.637,-43.945,26.367,41.992,-4.883,-15.137
1586550184.64,-52.246,26.855,44.922,-2.93,35.156
1586550184.644,70.312,28.809,41.016,48.828,67.871
1586550184.648,121.582,29.785,37.598,68.359,35.645
1586550184.652,-3.418,32.227,38.086,15.625,-5.371
1586550184.656,-46.875,34.668,40.039,-8.301,-5.859
1586550184.66,41.992,31.25,36.133,22.949,3.418
1586550184.664,143.555,27.344,31.25,62.988,6.836
1586550184.668,43.457,27.832,31.738,30.762,23.926
1586550184.672,-62.012,29.297,33.691,-16.602,25.879
1586550184.676,0.488,27.832,35.156,6.348,13.184
1586550184.68,115.234,26.367,35.645,56.152,-20.996
1586550184.683,53.711,27.344,35.156,42.969,-15.137
1586550184.687,-75.684,26.855,31.25,-2.441,0
1586550184.691,-41.992,27.832,23.926,8.789,14.16
1586550184.695,89.844,27.832,29.785,49.316,17.578
1586550184.699,111.328,27.832,37.598,45.898,35.156
1586550184.703,-21.484,32.227,40.039,-0.488,54.688
1586550184.707,-42.48,32.227,37.598,-10.742,2.441
1586550184.711,68.848,29.785,36.621,37.109,-10.254
1586550184.715,144.043,29.785,37.598,78.613,43.945
1586550184.719,25.391,31.25,34.668,31.738,-33.203
1586550184.722,-49.316,31.738,35.645,-3.418,-32.715
1586550184.726,30.762,31.738,33.691,29.297,-7.324
1586550184.73,142.09,31.25,34.18,82.52,1.953
1586550184.734,41.504,29.785,32.715,51.27,14.16
1586550184.738,-69.336,28.809,27.344,-4.883,-2.441
1586550184.742,-5.859,28.809,33.203,14.648,26.367
1586550184.746,115.723,26.367,34.668,64.941,27.344
1586550184.75,85.449,24.414,35.156,58.105,56.641
1586550184.754,-56.152,25.391,36.621,-6.836,92.285
1586550184.758,-39.551,28.32,36.133,-17.578,49.805
1586550184.762,91.797,27.832,33.203,42.969,83.008
1586550184.765,119.141,27.344,33.203,53.711,76.66
1586550184.769,-14.16,27.832,32.715,-5.371,41.016
1586550184.773,-58.105,27.832,29.297,-17.578,53.223
1586550184.777,48.828,28.32,28.809,19.043,52.246
1586550184.781,138.184,26.367,29.297,59.57,71.777
1586550184.785,20.02,25.391,29.297,20.996,57.617
1586550184.789,-56.152,26.367,30.273,-14.16,22.949
1586550184.793,15.137,26.855,32.227,19.531,41.016
1586550184.797,119.629,26.855,29.785,57.617,81.543
1586550184.801,46.387,24.414,29.297,34.18,27.832
1586550184.805,-75.195,24.414,31.738,-5.859,0.488
1586550184.808,-44.922,25.391,30.762,5.859,57.617
1586550184.812,90.82,27.832,34.18,53.223,54.688
1586550184.816,98.633,30.762,37.598,50.781,50.781
1586550184.82,-39.062,28.809,38.574,-4.883,50.293
1586550184.824,-41.992,27.344,34.668,-21.973,-0.977
1586550184.828,70.801,27.344,32.715,20.996,-23.926
1586550184.832,119.629,27.832,32.715,51.27,-17.578
1586550184.836,-8.301,29.297,33.203,5.859,-30.273
1586550184.84,-56.152,29.785,37.598,-14.16,10.254
1586550184.844,44.434,27.344,35.156,28.32,26.367
1586550184.847,144.531,28.32,28.32,61.523,35.645
1586550184.851,41.016,32.227,32.227,20.508,-10.254
1586550184.855,-58.594,31.738,38.086,-9.766,-17.09
1586550184.859,6.836,30.762,31.738,20.996,59.082
1586550184.863,119.629,30.273,33.203,64.453,57.129
1586550184.867,61.035,32.715,38.574,39.062,60.547
1586550184.871,-71.777,34.18,37.109,-23.438,14.16
1586550184.875,-50.293,35.156,34.18,-21.484,39.551
1586550184.879,84.961,33.691,34.668,42.969,21.484
1586550184.883,100.098,33.203,34.668,52.246,-26.367
1586550184.887,-38.574,32.227,32.227,-3.906,37.598
1586550184.89,-56.152,29.785,35.156,-12.207,75.195
1586550184.894,53.223,32.227,39.551,36.133,30.762
1586550184.898,123.047,33.203,40.527,71.289,-27.344
1586550184.902,-6.348,30.762,39.551,16.602,-34.668
1586550184.906,-66.895,29.785,36.133,-21.484,-21.484
1586550184.91,33.691,31.25,33.203,15.137,11.719
1586550184.914,135.254,29.297,35.156,61.523,-7.812
1586550184.918,38.086,28.32,38.086,39.062,-27.344
1586550184.922,-70.312,28.809,34.18,-7.324,20.02
1586550184.926,-5.371,30.762,36.621,0.977,23.438
1586550184.93,117.676,29.785,40.039,49.805,10.742
1586550184.933,70.801,30.273,37.598,39.062,6.836
1586550184.937,-70.312,29.785,37.109,-7.812,-0.977
1586550184.941,-47.852,28.32,35.645,-0.977,21.973
1586550184.945,87.402,26.855,33.691,48.828,55.664
1586550184.949,111.328,28.809,34.668,66.406,49.316
1586550184.953,-29.297,32.715,36.133,7.324,-17.578
1586550184.957,-69.336,30.273,37.598,-16.113,12.207
1586550184.961,35.156,30.273,30.762,28.809,9.766
1586550184.965,126.465,32.715,23.438,72.266,13.672
1586550184.969,12.207,31.738,33.691,31.738,19.043
1586550184.972,-64.453,31.25,42.969,-13.672,-6.348
1586550184.976,22.461,33.691,40.039,11.719,54.688
1586550184.98,136.23,33.691,32.227,62.988,113.77
1586550184.984,58.105,32.227,31.738,36.133,41.016
1586550184.988,-57.129,31.25,39.551,-12.695,-30.762
1586550184.992,-11.719,30.762,39.062,0.488,5.859
1586550184.996,118.164,30.273,37.598,60.547,70.312
1586550185,102.051,33.203,41.504,63.477,27.344
1586550185.004,-42.969,36.621,46.387,1.953,27.344
1586550185.008,-49.316,31.25,42.969,-9.766,60.547
1586550185.012,75.195,27.832,38.086,34.668,113.281
1586550185.015,114.258,32.227,36.621,60.059,76.66
1586550185.019,-33.203,31.25,38.574,13.672,-11.23
1586550185.023,-62.012,28.809,41.016,-5.859,16.113
1586550185.027,55.176,31.738,38.574,21.484,17.09
1586550185.031,144.043,32.715,39.551,56.152,57.617
1586550185.035,25.879,32.227,40.527,31.738,17.09
1586550185.039,-65.918,33.203,39.551,0,-68.848
1586550185.043,13.672,32.715,34.18,20.02,-30.762
1586550185.047,143.066,33.203,27.832,67.871,-13.184
1586550185.051,71.289,34.668,34.18,41.504,-62.5
1586550185.055,-60.547,37.109,37.598,-16.113,-25.879
1586550185.058,-11.719,38.574,38.574,-10.254,51.27
1586550185.062,110.84,37.109,43.945,42.48,33.203
1586550185.066,99.121,34.18,40.039,54.688,-5.371
1586550185.07,-29.785,33.203,36.133,-13.184,-32.715
1586550185.074,-39.062,33.691,39.551,-23.438,8.789
1586550185.078,65.918,31.738,41.016,36.133,3.418
1586550185.082,108.887,29.785,39.062,62.988,1.953
1586550185.086,-20.508,30.273,38.574,20.508,29.785
1586550185.09,-69.336,31.25,39.062,-4.883,9.277
1586550185.094,31.25,29.785,38.574,28.32,51.758
1586550185.097,139.16,29.785,36.621,84.473,52.246
1586550185.101,36.621,31.25,33.691,42.969,-34.18
1586550185.105,-72.754,30.273,33.203,-13.672,-15.625
1586550185.109,3.906,31.25,29.785,13.184,52.734
1586550185.113,134.766,32.227,28.809,68.848,19.043
1586550185.117,80.566,30.762,34.668,53.711,2.93
1586550185.121,-38.086,31.25,38.086,-6.348,-13.184
1586550185.125,-13.184,32.715,37.109,-6.348,-82.52
1586550185.129,104.004,27.344,35.645,44.434,-3.906
1586550185.133,118.652,27.832,36.133,52.734,86.426
1586550185.137,-19.531,29.297,36.621,-5.859,8.301
1586550185.14,-51.27,27.832,34.668,-21.973,9.766
1586550185.144,52.734,28.809,35.645,26.855,65.43
1586550185.148,126.465,30.273,37.109,70.801,87.891
1586550185.152,5.371,34.18,36.621,24.902,24.414
1586550185.156,-61.523,36.133,37.109,-10.254,38.574
1586550185.16,34.668,36.621,38.086,24.414,83.984
1586550185.164,142.578,33.203,38.574,72.266,41.992
1586550185.168,47.363,31.738,41.016,46.387,4.883
1586550185.172,-58.105,32.227,41.992,2.93,0.488
1586550185.176,3.418,32.227,38.574,8.301,-59.57
1586550185.18,135.742,32.227,38.086,50.781,-13.184
1586550185.183,105.469,29.297,41.016,45.898,45.898
1586550185.187,-31.25,29.297,38.086,-9.277,20.508
1586550185.191,-21.484,32.227,31.738,-2.93,89.844
1586550185.195,97.168,32.227,32.227,54.688,113.281
1586550185.199,120.605,33.691,34.668,68.848,73.242
1586550185.203,-20.508,34.668,36.133,9.766,48.828
1586550185.207,-43.945,34.668,41.016,-10.742,39.551
1586550185.211,63.477,34.668,41.016,28.32,-22.949
1586550185.215,135.742,30.762,37.598,58.594,-9.277
1586550185.219,13.672,29.297,37.598,19.043,48.828
1586550185.222,-70.312,29.297,36.133,-16.113,38.574
1586550185.226,7.324,26.855,36.133,19.531,47.363
1586550185.23,125,26.855,38.086,70.801,53.711
1586550185.234,59.082,29.297,37.598,44.922,17.09
1586550185.238,-52.734,29.297,33.691,-10.742,69.824
1586550185.242,-17.09,28.32,34.18,-4.883,32.715
1586550185.246,104.004,29.785,31.738,49.805,9.766
1586550185.25,94.727,30.273,31.738,54.688,23.926
1586550185.254,-42.969,31.25,37.109,0,-9.766
1586550185.258,-45.41,29.297,35.645,-11.23,28.809
1586550185.262,77.637,29.297,29.297,41.016,84.473
1586550185.265,131.348,32.227,28.809,66.406,72.754
1586550185.269,-5.371,35.156,34.668,7.324,40.039
1586550185.273,-60.059,34.668,37.598,-19.043,16.602
1586550185.277,40.527,28.809,35.645,23.438,22.949
1586550185.281,137.695,28.32,35.156,56.152,30.273
1586550185.285,37.109,29.297,35.156,8.301,34.18
1586550185.289,-57.617,26.367,32.715,-29.297,-20.02
1586550185.293,7.324,26.855,33.691,8.301,-10.742
1586550185.297,125.488,30.762,36.133,62.5,72.754
1586550185.301,72.266,33.203,37.109,42.969,73.242
1586550185.305,-49.316,36.133,37.109,-2.441,36.133
1586550185.308,-25.391,37.598,34.668,-0.977,20.02
1586550185.312,98.145,36.133,35.156,49.316,37.109
1586550185.316,109.375,34.668,37.109,63.965,36.621
1586550185.32,-38.086,34.18,36.133,5.859,-10.742
1586550185.324,-52.734,31.738,36.133,-7.812,-56.641
1586550185.328,76.172,30.273,38.086,37.598,-19.043
1586550185.332,144.531,33.203,37.598,68.359,24.902
1586550185.336,15.625,35.156,41.504,21.973,38.574
1586550185.34,-50.781,33.203,40.039,-1.953,20.508
1586550185.344,38.574,33.691,34.668,35.156,0
1586550185.347,144.531,32.227,37.109,74.219,72.266
1586550185.351,49.316,32.715,41.504,33.691,78.125
1586550185.355,-55.664,34.18,40.039,-14.648,-5.859
1586550185.359,1.465,31.25,40.527,4.883,-38.574
1586550185.363,127.441,31.738,40.527,62.012,28.809
1586550185.367,82.52,32.715,40.039,56.152,19.043
1586550185.371,-62.012,33.203,42.969,1.953,-28.809
1586550185.375,-36.621,32.715,38.574,0,23.926
1586550185.379,104.492,31.738,34.18,39.062,45.898
1586550185.383,118.164,31.738,37.109,50.781,30.762
1586550185.387,-37.109,31.738,40.039,2.441,93.75
1586550185.39,-62.5,34.18,40.527,-15.625,62.012
1586550185.394,48.828,31.738,37.598,30.762,8.789
1586550185.398,123.535,30.762,34.18,63.477,22.461
1586550185.402,1.953,33.691,37.109,14.648,26.367
1586550185.406,-71.289,30.273,39.551,-13.184,48.34
1586550185.41,17.09,26.367,37.109,20.996,62.988
1586550185.414,137.207,27.832,36.133,69.824,54.688
1586550185.418,58.594,31.25,37.109,39.551,24.414
1586550185.422,-64.453,28.809,38.086,-12.207,-1.465
1586550185.426,-18.555,28.32,38.574,4.883,-58.594
1586550185.43,113.281,32.227,38.574,56.152,-19.043
1586550185.433,99.121,33.203,39.062,46.875,64.941
1586550185.437,-33.691,32.227,40.039,0.977,65.918
1586550185.441,-29.785,35.156,37.109,3.418,2.93
1586550185.445,84.473,35.156,36.621,49.316,53.711
1586550185.449,123.047,32.227,39.062,74.707,90.332
1586550185.453,-15.625,31.25,40.527,19.043,1.465
1586550185.457,-60.059,28.809,38.086,-9.277,0
1586550185.461,48.34,31.25,37.598,32.227,1.465
1586550185.465,139.16,31.738,40.527,72.266,15.625
1586550185.469,16.602,30.762,41.504,32.227,32.715
1586550185.472,-80.078,29.297,39.551,-13.672,38.574
1586550185.476,-0.488,27.832,40.039,1.465,40.527
1586550185.48,128.418,30.762,39.062,53.711,52.734
1586550185.484,64.941,29.785,37.109,35.645,78.613
1586550185.488,-56.641,26.855,35.645,-19.531,27.832
1586550185.492,-20.02,27.832,35.156,-12.207,24.414
1586550185.496,106.934,26.855,34.18,41.504,79.102
1586550185.5,111.816,25.879,38.086,51.27,102.051
1586550185.504,-29.297,26.855,40.527,-9.766,96.191
1586550185.508,-32.227,26.855,39.551,-20.996,24.414
1586550185.512,81.543,25.879,39.551,34.668,-13.672
1586550185.515,119.141,28.809,38.086,58.594,12.207
1586550185.519,-12.695,28.32,38.574,6.836,36.133
1586550185.523,-55.176,27.832,39.062,-17.578,-6.348
1586550185.527,44.434,30.273,40.527,20.508,-47.852
1586550185.531,136.23,27.832,40.039,68.359,-15.625
1586550185.535,35.156,30.273,37.598,32.715,24.414
1586550185.539,-66.406,31.738,38.574,-20.02,18.066
1586550185.543,-4.395,31.25,39.062,8.301,24.902
1586550185.547,123.535,32.715,37.109,63.965,58.594
1586550185.551,72.266,31.738,39.062,47.363,-5.859
1586550185.555,-53.711,29.785,41.016,-2.93,-9.277
1586550185.558,-26.855,31.25,39.062,-4.395,20.996
1586550185.562,91.309,33.203,36.621,38.086,19.043
1586550185.566,111.328,30.273,36.133,52.734,15.137
1586550185.57,-23.926,31.738,37.109,2.93,2.93
1586550185.574,-51.758,33.691,39.551,-10.254,34.668
1586550185.578,62.988,32.715,39.062,37.109,34.18
1586550185.582,144.043,33.691,39.551,72.266,5.371
1586550185.586,14.16,34.668,42.969,20.508,-6.836
1586550185.59,-62.988,33.691,43.457,-14.16,5.371
1586550185.594,30.273,34.18,38.574,21.973,72.754
1586550185.597,142.578,34.668,38.574,74.219,135.254
1586550185.601,48.828,32.227,39.551,53.711,53.711
1586550185.605,-59.082,31.738,35.645,-0.488,24.902
1586550185.609,-8.789,29.297,41.992,0.977,59.57
1586550185.613,109.375,24.902,45.898,43.945,26.367
1586550185.617,77.637,27.344,45.898,40.527,54.688
1586550185.621,-59.57,32.227,48.828,-9.766,20.996
1586550185.625,-51.758,30.273,46.387,-14.648,-7.324
1586550185.629,69.336,30.273,45.41,34.668,35.645
1586550185.633,112.793,34.18,46.875,58.594,17.578
1586550185.637,-22.949,33.691,46.387,1.953,-22.461
1586550185.64,-63.477,30.762,44.434,-21.973,-43.945
1586550185.644,46.875,31.25,44.434,18.555,19.043
1586550185.648,128.418,33.203,44.434,55.664,71.289
1586550185.652,1.465,32.715,43.945,14.16,26.367
1586550185.656,-80.566,33.691,42.969,-31.738,-41.016
1586550185.66,3.906,34.668,44.434,-12.695,-14.648
1586550185.664,125.488,36.621,45.41,32.715,19.531
1586550185.668,62.012,39.062,46.387,16.602,28.809
1586550185.672,-73.73,36.133,49.805,-37.598,8.301
1586550185.676,-45.898,36.133,47.852,-36.133,-14.16
1586550185.68,88.867,39.062,41.016,30.273,-7.812
1586550185.683,76.172,37.109,44.434,47.363,-6.348
1586550185.687,-68.848,37.109,45.898,-11.23,-8.789
1586550185.691,-58.105,38.574,37.109,-25.391,2.441
1586550185.695,77.637,38.086,35.645,30.273,88.379
1586550185.699,125,37.109,35.645,57.617,119.629
1586550185.703,-10.742,38.086,33.691,1.465,74.219
1586550185.707,-69.336,36.621,35.645,-12.695,-15.137
1586550185.711,17.578,35.156,39.551,26.367,-27.344
1586550185.715,125,36.621,39.551,62.988,11.719
1586550185.719,38.574,38.574,37.598,29.785,55.664
1586550185.722,-53.223,37.598,36.133,-14.648,23.926
1586550185.726,5.859,34.18,36.621,11.719,-35.645
1586550185.73,123.535,33.203,33.691,62.012,-20.996
1586550185.734,72.266,33.691,26.855,46.387,3.418
1586550185.738,-62.988,33.203,34.18,0.488,-44.922
1586550185.742,-37.109,35.156,41.992,11.719,-75.684
1586550185.746,98.633,32.227,40.039,64.941,-5.371
1586550185.75,104.492,30.762,39.062,74.219,-5.859
1586550185.754,-31.738,34.668,38.574,16.113,-13.672
1586550185.758,-40.039,35.156,38.086,-0.488,8.301
1586550185.762,71.289,30.273,34.668,43.457,47.852
1586550185.765,136.719,27.832,25.879,73.242,56.152
1586550185.769,11.23,30.273,25.391,27.832,24.902
1586550185.773,-53.711,30.273,31.738,-7.812,25.391
1586550185.777,36.621,28.809,38.086,22.949,-10.742
1586550185.781,139.16,29.297,41.504,61.523,44.434
1586550185.785,45.41,28.32,42.48,30.273,90.82
1586550185.789,-54.688,28.809,40.527,-3.906,63.477
1586550185.793,4.395,28.32,39.062,12.207,37.109
1586550185.797,124.512,26.367,40.039,64.941,7.812
1586550185.801,74.707,28.809,41.016,59.57,-4.883
1586550185.805,-60.059,29.297,37.109,1.465,-27.832
1586550185.808,-33.203,26.855,34.18,4.883,-11.719
1586550185.812,99.121,26.855,30.762,54.199,27.344
1586550185.816,124.512,27.344,26.855,63.477,13.184
1586550185.82,-20.508,27.344,29.785,17.578,35.156
1586550185.824,-50.293,26.855,32.715,-1.465,62.988
1586550185.828,60.059,24.414,32.227,39.062,86.426
1586550185.832,130.371,24.414,32.227,73.242,90.82
1586550185.836,8.301,28.32,34.18,24.414,46.875
1586550185.84,-66.895,26.367,35.645,-7.324,44.434
1586550185.844,20.508,24.902,31.25,21.973,46.875
1586550185.847,147.949,28.809,30.762,70.312,21.484
1586550185.851,77.637,29.297,34.18,44.922,84.961
1586550185.855,-46.387,27.344,36.133,-10.254,50.293
1586550185.859,-13.672,23.926,35.156,7.812,13.672
1586550185.863,117.188,25.391,33.691,71.777,45.898
1586550185.867,107.91,30.762,37.598,64.453,25.879
1586550185.871,-30.273,33.691,40.527,-0.488,-36.621
1586550185.875,-35.156,31.738,38.086,-1.953,-76.66
1586550185.879,90.332,32.227,35.156,46.387,14.16
1586550185.883,130.859,33.203,38.574,66.406,52.734
1586550185.887,-15.137,32.227,39.551,14.648,4.395
1586550185.89,-53.711,32.227,34.668,-9.766,-2.441
1586550185.894,53.223,31.738,35.156,31.25,0.488
1586550185.898,133.301,31.738,36.621,65.918,8.789
1586550185.902,20.996,31.738,40.039,12.695,30.273
1586550185.906,-66.406,30.762,42.969,-23.926,14.16
1586550185.91,3.418,30.273,39.551,12.695,24.902
1586550185.914,120.117,28.809,39.062,61.035,36.621
1586550185.918,57.129,27.344,41.504,38.574,13.672
1586550185.922,-56.641,30.762,41.504,-10.254,-5.371
1586550185.926,-19.531,33.203,43.457,5.371,-25.391
1586550185.93,103.516,29.785,40.039,53.223,-22.949
1586550185.933,91.797,27.832,37.598,50.293,-32.227
1586550185.937,-50.781,32.227,41.504,-3.418,6.836
1586550185.941,-45.41,33.203,42.969,-4.883,69.824
1586550185.945,80.078,31.738,41.016,41.992,62.988
1586550185.949,117.188,34.18,36.133,49.316,2.441
1586550185.953,-20.508,35.645,39.551,-10.254,-52.734
1586550185.957,-77.148,30.273,43.457,-34.668,-33.203
1586550185.961,15.137,31.738,40.527,10.254,7.324
1586550185.965,112.305,39.551,39.062,51.758,42.48
1586550185.969,-0.977,41.504,39.062,0.977,28.32
1586550185.972,-113.281,45.41,41.016,-54.688,15.625
1586550185.976,-58.105,45.41,46.875,-42.48,35.156
1586550185.98,57.617,44.922,50.293,-0.488,96.191
1586550185.984,14.648,48.828,51.27,-14.648,110.84
1586550185.988,-109.375,46.875,43.945,-58.105,73.73
1586550185.992,-75.684,41.016,41.504,-49.316,8.789
1586550185.996,62.5,37.598,39.062,5.371,4.883
1586550186,89.355,41.016,30.762,29.297,88.867
1586550186.004,-41.992,41.992,38.574,-13.672,37.109
1586550186.008,-65.918,37.598,45.41,-27.344,-28.809
1586550186.012,48.828,33.203,47.363,21.484,-26.855
1586550186.015,124.023,36.133,44.434,55.664,29.297
1586550186.019,4.395,39.062,38.086,9.766,51.27
1586550186.023,-55.176,37.109,37.109,-10.742,32.227
1586550186.027,36.133,34.668,35.645,29.297,1.953
1586550186.031,153.809,33.203,31.738,73.242,15.625
1586550186.035,76.172,35.156,27.344,44.922,61.035
1586550186.039,-45.41,31.738,30.762,-3.906,64.453
1586550186.043,-0.977,30.762,36.133,18.555,41.992
1586550186.047,116.211,31.738,33.691,76.172,-1.465
1586550186.051,90.332,30.273,31.25,73.242,9.277
1586550186.055,-35.156,29.297,30.273,20.996,32.715
1586550186.058,-20.508,26.855,27.344,14.648,20.996
1586550186.062,107.422,25.879,24.902,57.129,-7.324
1586550186.066,138.184,26.367,28.809,79.102,41.992
1586550186.07,-4.883,21.973,35.156,33.691,72.266
1586550186.074,-42.48,21.973,32.715,10.254,41.016
1586550186.078,70.801,29.297,30.762,48.34,30.762
1586550186.082,154.785,33.203,30.762,81.543,71.777
1586550186.086,37.109,33.691,31.25,39.551,45.898
1586550186.09,-39.062,31.25,32.227,5.859,-39.062
1586550186.094,34.18,28.32,31.738,32.715,-40.039
1586550186.097,148.438,27.344,30.762,90.82,50.781
1586550186.101,73.73,30.273,30.762,68.359,88.867
1586550186.105,-46.387,29.785,33.203,19.531,54.199
1586550186.109,-0.488,29.785,32.715,35.156,45.41
1586550186.113,124.023,32.715,30.273,71.289,39.551
1586550186.117,104.98,30.273,29.297,68.848,-4.395
1586550186.121,-33.203,30.273,30.762,20.508,-32.715
1586550186.125,-38.086,30.762,32.715,14.16,15.625
1586550186.129,80.078,31.25,31.25,59.57,72.754
1586550186.133,134.277,28.32,28.809,75.684,37.598
1586550186.137,0.488,25.879,31.738,16.602,55.176
1586550186.14,-43.457,29.297,31.25,-3.906,99.121
1586550186.144,66.895,29.297,27.832,38.574,48.34
1586550186.148,154.297,27.344,33.203,74.707,50.781
1586550186.152,38.574,28.32,36.621,35.645,54.688
1586550186.156,-61.523,27.832,34.18,0.488,23.926
1586550186.16,3.418,25.879,32.227,29.785,25.879
1586550186.164,137.695,22.949,33.691,84.473,55.176
1586550186.168,86.914,28.32,33.691,63.477,71.289
1586550186.172,-41.992,31.25,32.227,-1.953,28.809
1586550186.176,-9.277,25.391,33.203,3.906,40.527
1586550186.18,114.258,23.926,31.738,61.035,138.184
1586550186.183,101.074,23.438,32.227,65.918,87.402
1586550186.187,-44.922,18.555,34.668,4.883,-17.09
1586550186.191,-50.293,21.973,32.715,-4.395,1.465
1586550186.195,63.965,24.902,33.203,51.27,25.391
1586550186.199,124.023,26.367,32.715,74.219,59.082
1586550186.203,3.906,30.762,32.715,17.578,-0.977
1586550186.207,-54.199,26.855,37.598,-6.348,20.02
1586550186.211,39.062,24.902,38.086,29.297,62.988
1586550186.215,140.625,28.32,38.086,74.707,-16.113
1586550186.219,45.41,25.391,41.016,47.363,-1.953
1586550186.222,-51.27,26.367,36.133,0.488,6.836
1586550186.226,4.883,26.855,34.18,10.254,-1.465
1586550186.23,130.859,21.973,36.621,62.5,-1.465
1586550186.234,97.168,21.973,35.645,52.734,0.977
1586550186.238,-37.598,22.949,36.133,-7.324,-7.812
1586550186.242,-13.184,24.414,35.156,0.977,39.062
1586550186.246,112.793,24.902,36.133,60.547,69.336
1586550186.25,121.582,27.832,38.086,69.336,89.844
1586550186.254,-27.344,29.785,41.016,11.719,92.773
1586550186.258,-53.223,30.273,41.504,-1.953,32.227
1586550186.262,57.617,28.32,36.621,42.969,49.805
1586550186.265,132.324,28.32,34.18,79.102,69.336
1586550186.269,22.949,32.715,35.156,28.32,1.465
1586550186.273,-61.523,31.738,34.18,-17.578,20.02
1586550186.277,11.23,32.227,35.156,19.531,66.895
1586550186.281,136.719,31.738,34.668,69.824,37.109
1586550186.285,66.895,30.273,32.715,42.48,56.641
1586550186.289,-52.734,32.227,33.691,-0.488,29.297
1586550186.293,-8.789,31.25,35.645,8.301,-9.277
1586550186.297,122.07,29.785,33.203,53.711,72.266
1586550186.301,94.727,30.273,34.18,46.875,91.797
1586550186.305,-45.898,31.25,36.621,-5.859,30.762
1586550186.308,-38.574,28.32,38.086,-1.465,-42.48
1586550186.312,83.008,26.367,38.574,43.945,-58.105
1586550186.316,125,32.227,37.598,62.988,-2.441
1586550186.32,-5.371,36.621,38.086,14.648,29.297
1586550186.324,-49.316,33.691,37.598,-13.672,15.625
1586550186.328,52.246,31.738,37.109,23.926,-0.977
1586550186.332,144.043,33.203,34.668,67.871,-9.277
1586550186.336,25.879,31.25,32.715,32.715,-42.48
1586550186.34,-67.383,31.25,34.668,-8.789,-50.293
1586550186.344,0.977,29.297,38.086,6.348,-32.715
1586550186.347,120.117,29.297,36.621,50.293,16.602
1586550186.351,62.988,31.25,38.574,34.18,16.113
1586550186.355,-63.477,26.855,40.039,-15.625,-15.137
1586550186.359,-32.715,23.926,37.109,-5.371,-18.555
1586550186.363,89.355,21.973,37.109,61.035,1.953
1586550186.367,85.938,21.484,35.156,67.871,61.523
1586550186.371,-48.828,23.438,33.203,1.953,52.734
1586550186.375,-54.688,26.367,31.738,-15.625,11.23
1586550186.379,64.453,25.879,32.227,28.809,26.855
1586550186.383,121.582,27.832,35.645,56.641,-36.133
1586550186.387,-6.348,28.809,36.621,5.859,-64.941
1586550186.39,-58.105,28.32,33.203,-18.066,32.715
1586550186.394,29.297,28.809,31.25,18.555,90.332
1586550186.398,128.906,28.32,29.785,59.082,48.828
1586550186.402,34.18,31.25,28.809,24.414,16.602
1586550186.406,-63.477,33.691,29.297,-20.508,7.812
1586550186.41,-0.488,30.273,23.438,5.859,17.09
1586550186.414,125,26.367,20.508,62.988,43.945
1586550186.418,84.961,29.785,25.879,44.922,50.781
1586550186.422,-47.852,33.691,33.691,-13.672,41.504
1586550186.426,-27.344,34.18,36.133,-8.301,28.809
1586550186.43,102.051,34.18,32.715,41.992,52.246
1586550186.433,115.234,36.133,32.715,50.293,73.242
1586550186.437,-25.879,38.086,32.715,-1.465,35.156
1586550186.441,-53.711,31.25,34.668,-11.719,-19.531
1586550186.445,63.965,26.855,33.203,32.715,45.898
1586550186.449,139.16,33.691,29.297,64.941,75.684
1586550186.453,12.207,36.621,34.18,23.438,30.273
1586550186.457,-51.758,34.668,38.574,-0.977,23.438
1586550186.461,34.668,33.203,38.574,37.109,19.531
1586550186.465,142.578,33.203,35.156,85.449,29.297
1586550186.469,61.523,33.691,32.715,60.547,28.809
1586550186.472,-49.805,33.691,34.18,9.277,37.109
1586550186.476,-9.277,32.715,37.109,10.742,36.621
1586550186.48,128.418,33.203,39.062,60.059,1.465
1586550186.484,113.281,36.621,39.062,57.617,4.883
1586550186.488,-29.297,37.109,39.551,5.371,-0.488
1586550186.492,-19.043,35.645,39.551,11.23,-0.488
1586550186.496,109.375,33.203,38.086,61.523,7.324
1586550186.5,127.93,34.668,34.668,67.383,-14.648
1586550186.504,-13.672,32.715,31.738,14.16,4.395
1586550186.508,-41.992,31.738,32.227,-2.441,-2.93
1586550186.512,73.73,34.18,32.715,39.551,-28.32
1586550186.515,155.762,32.715,33.203,76.66,15.625
1586550186.519,34.18,35.156,35.156,26.855,28.809
1586550186.523,-45.41,37.109,35.645,-9.277,50.293
1586550186.527,30.762,30.762,36.133,21.484,20.996
1586550186.531,145.996,26.367,35.156,71.777,-11.23
1586550186.535,66.895,25.391,38.086,47.363,33.203
1586550186.539,-62.012,25.391,39.062,-1.953,48.34
1586550186.543,-21.973,27.832,38.574,11.719,51.758
1586550186.547,102.539,28.809,37.598,62.012,53.223
1586550186.551,89.844,25.879,33.203,61.523,36.621
1586550186.555,-47.363,24.902,32.227,1.953,64.453
1586550186.558,-41.992,26.367,32.227,-2.441,91.309
1586550186.562,83.984,30.762,32.715,42.969,21.484
1586550186.566,125,29.785,35.156,66.895,25.879
1586550186.57,-9.766,22.949,35.645,21.484,41.016
1586550186.574,-56.152,23.926,33.691,-15.137,-9.766
1586550186.578,44.922,24.414,30.762,15.625,25.391
1586550186.582,143.066,24.414,31.738,62.5,34.668
1586550186.586,37.598,27.344,34.18,26.855,-12.207
1586550186.59,-57.617,28.32,34.668,-17.09,-9.766
1586550186.594,9.277,29.297,34.668,-3.418,-6.348
1586550186.597,128.418,30.273,34.18,45.41,7.324
1586550186.601,72.754,29.785,38.574,34.668,27.344
1586550186.605,-57.617,26.855,38.574,-13.184,31.25
1586550186.609,-32.715,23.438,36.133,-5.371,45.41
1586550186.613,85.449,22.461,37.598,46.875,45.898
1586550186.617,83.496,20.996,37.109,55.664,2.93
1586550186.621,-49.316,20.02,37.598,-3.906,-19.531
1586550186.625,-64.453,18.555,36.621,-17.09,29.297
1586550186.629,48.828,20.996,35.156,24.414,94.727
1586550186.633,108.398,22.461,37.598,55.664,100.586
1586550186.637,-20.996,19.043,42.969,11.23,89.355
1586550186.64,-76.66,17.09,43.457,-13.184,41.504
1586550186.644,25.391,17.578,39.062,25.879,-35.156
1586550186.648,129.883,20.02,35.645,72.266,-1.465
1586550186.652,41.992,22.949,35.645,44.434,21.484
1586550186.656,-55.176,21.484,36.621,-1.953,-16.113
1586550186.66,-0.977,20.996,36.133,14.648,-58.105
1586550186.664,129.395,21.484,37.598,65.43,-33.691
1586550186.668,92.285,23.926,39.062,47.852,29.297
1586550186.672,-34.18,27.344,39.551,-6.348,15.625
1586550186.676,-17.578,24.414,41.992,-4.883,15.625
1586550186.68,84.961,20.02,41.016,39.551,36.133
1586550186.683,104.98,21.973,38.574,59.082,10.254
1586550186.687,-31.25,20.02,39.062,3.418,15.625
1586550186.691,-59.082,19.043,34.18,-15.137,38.086
1586550186.695,48.34,19.531,31.738,27.832,-9.766
1586550186.699,125,19.531,33.691,61.523,29.785
1586550186.703,16.602,23.438,35.645,19.043,33.691
1586550186.707,-53.711,23.926,38.086,-12.207,-12.695
1586550186.711,30.762,22.461,40.039,20.02,12.695
1586550186.715,144.043,23.926,40.527,65.43,21.484
1586550186.719,62.012,23.438,41.016,40.527,19.531
1586550186.722,-47.363,24.902,40.039,-0.488,11.23
1586550186.726,-12.207,27.344,38.574,13.184,7.812
1586550186.73,108.398,24.414,35.156,58.594,42.48
1586550186.734,98.145,24.414,34.18,45.41,16.113
1586550186.738,-28.809,26.855,34.18,-16.113,-16.113
1586550186.742,-27.832,27.832,34.668,-11.719,-17.09
1586550186.746,88.379,29.785,36.133,42.969,5.859
1586550186.75,126.953,29.297,32.715,56.152,22.949
1586550186.754,-10.742,30.273,33.691,6.348,18.066
1586550186.758,-56.152,30.762,37.109,-14.16,53.711
1586550186.762,33.691,29.785,36.133,14.648,46.387
1586550186.765,117.188,29.785,34.18,51.758,13.672
1586550186.769,1.465,28.809,35.156,16.602,28.32
1586550186.773,-78.613,32.715,32.715,-21.484,-9.277
1586550186.777,1.465,30.762,32.715,11.23,-32.227
1586550186.781,111.816,23.926,35.645,58.105,82.031
1586550186.785,51.27,27.344,34.18,35.156,80.566
1586550186.789,-72.266,27.344,33.203,-12.207,45.898
1586550186.793,-41.992,25.879,32.715,-10.254,35.156
1586550186.797,94.727,27.832,31.738,41.992,8.789
1586550186.801,87.891,31.25,32.227,48.34,43.457
1586550186.805,-54.199,33.691,33.203,-6.348,46.875
1586550186.808,-56.152,36.133,30.762,-14.648,13.672
1586550186.812,54.199,32.715,31.738,27.344,1.465
1586550186.816,109.375,32.715,32.227,54.199,-19.043
1586550186.82,-16.602,34.668,32.715,5.371,-48.828
1586550186.824,-74.219,34.18,34.668,-27.344,16.602
1586550186.828,25.879,37.598,32.227,10.742,9.277
1586550186.832,130.371,34.668,35.156,60.547,50.293
1586550186.836,36.133,34.18,40.039,24.414,117.676
1586550186.84,-60.059,36.133,40.039,-17.09,85.449
1586550186.844,-1.465,33.203,40.039,4.883,116.699
1586550186.847,121.094,32.227,38.086,57.617,84.961
1586550186.851,71.289,35.645,39.062,51.758,19.531
1586550186.855,-61.035,38.086,39.551,-0.488,19.531
1586550186.859,-26.855,38.574,40.039,-0.488,-2.93
1586550186.863,98.633,40.039,41.016,52.246,9.277
1586550186.867,99.609,41.016,39.551,58.594,84.961
1586550186.871,-36.621,38.086,39.062,0.488,48.828
1586550186.875,-51.27,33.691,38.574,-7.812,27.832
1586550186.879,62.988,33.691,37.109,39.551,52.734
1586550186.883,125.977,34.18,38.086,72.754,62.012
1586550186.887,4.883,31.738,41.016,31.738,43.457
1586550186.89,-56.641,28.809,41.992,-7.812,28.32
1586550186.894,25.391,29.297,39.551,11.23,61.523
1586550186.898,125,30.762,35.156,58.105,41.992
1586550186.902,36.621,31.738,34.18,34.18,29.785
1586550186.906,-64.453,32.227,35.645,-7.324,20.996
1586550186.91,-7.812,29.785,34.668,5.859,18.555
1586550186.914,113.77,28.32,35.645,51.758,83.008
1586550186.918,79.102,30.762,36.133,42.969,88.379
1586550186.922,-55.176,28.809,36.133,-9.766,42.969
1586550186.926,-38.574,28.32,34.668,-5.371,47.852
1586550186.93,86.426,29.297,32.715,43.457,72.266
1586550186.933,113.281,27.344,35.156,59.082,76.66
1586550186.937,-19.531,29.785,37.109,7.812,20.996
1586550186.941,-52.734,31.738,35.645,-15.137,-10.742
1586550186.945,54.688,32.715,36.133,28.809,13.672
1586550186.949,135.254,35.156,39.062,67.871,-0.488
1586550186.953,13.184,35.645,37.598,20.02,-45.898
1586550186.957,-67.383,30.762,36.133,-17.09,-51.758
1586550186.961,13.184,30.273,36.133,10.254,-2.441
1586550186.965,134.277,31.25,34.18,54.688,58.105
1586550186.969,61.523,31.738,31.738,31.738,40.527
1586550186.972,-67.871,33.691,32.227,-12.695,8.789
1586550186.976,-23.926,32.227,32.227,-3.418,-0.977
1586550186.98,112.793,30.273,32.715,46.387,10.742
1586550186.984,103.027,34.18,34.668,52.246,30.762
1586550186.988,-38.574,37.598,34.668,1.953,30.273
1586550186.992,-44.922,35.156,33.203,-5.371,11.23
1586550186.996,73.73,35.645,32.715,48.34,28.809
1586550187,114.746,38.086,33.203,73.242,49.805
1586550187.004,-18.066,37.109,32.715,16.602,39.062
1586550187.008,-62.5,33.691,33.203,-9.766,1.953
1586550187.012,39.062,32.227,34.18,21.484,30.762
1586550187.015,125.488,37.109,33.691,62.988,78.613
1586550187.019,21.973,42.48,33.691,28.809,58.594
1586550187.023,-56.641,39.551,36.621,-14.648,66.895
1586550187.027,17.09,38.574,39.062,12.207,25.391
1586550187.031,130.371,40.039,35.645,62.988,10.254
1586550187.035,74.219,37.598,33.203,45.41,12.695
1586550187.039,-43.945,34.668,36.621,-0.977,-0.977
1586550187.043,-11.23,34.668,37.109,2.93,-31.738
1586550187.047,108.398,34.668,33.691,54.199,-25.391
1586550187.051,104.492,33.691,34.668,65.918,30.762
1586550187.055,-27.344,34.18,36.133,10.742,69.336
1586550187.058,-48.34,35.645,35.645,-10.254,41.504
1586550187.062,54.199,36.133,33.203,22.949,9.766
1586550187.066,117.676,38.086,32.715,53.711,21.973
1586550187.07,4.883,36.621,37.598,9.277,30.273
1586550187.074,-49.805,37.598,37.109,-15.625,48.34
1586550187.078,34.18,40.039,34.668,18.555,66.895
1586550187.082,133.789,38.086,36.133,61.523,15.137
1586550187.086,38.574,36.621,37.598,32.715,1.465
1586550187.09,-64.941,37.109,37.109,-16.113,64.941
1586550187.094,6.348,38.574,36.621,-1.465,-13.672
1586550187.097,141.602,42.48,37.109,56.152,-25.879
1586550187.101,86.914,41.504,38.086,47.852,7.324
1586550187.105,-51.27,42.969,36.133,-1.465,-39.551
1586550187.109,-30.762,43.457,36.133,8.789,-22.461
1586550187.113,97.168,40.527,40.039,52.246,38.574
1586550187.117,121.582,42.969,40.527,54.688,42.48
1586550187.121,-31.25,41.504,38.086,-1.465,23.926
1586550187.125,-57.617,35.645,37.109,-13.184,5.371
1586550187.129,59.57,37.109,36.621,35.156,17.09
1586550187.133,133.301,41.016,35.645,68.848,30.273
1586550187.137,12.207,39.551,36.621,24.902,-7.324
1586550187.14,-70.312,38.574,36.621,-6.836,7.812
1586550187.144,10.254,41.016,35.645,18.066,21.973
1586550187.148,125.977,41.504,35.156,62.988,12.695
1586550187.152,52.246,40.527,37.109,35.156,25.391
1586550187.156,-54.688,37.109,37.598,-6.836,6.348
1586550187.16,-14.16,35.156,34.668,8.789,-1.953
1586550187.164,118.164,37.109,34.18,57.129,19.043
1586550187.168,95.215,34.18,36.133,53.711,10.742
1586550187.172,-52.246,30.762,37.109,-4.395,-13.184
1586550187.176,-37.598,29.785,34.668,-8.301,0
1586550187.18,83.984,25.391,32.227,49.805,16.602
1586550187.183,117.188,25.391,33.691,74.219,9.766
1586550187.187,-16.602,28.809,38.574,24.902,59.082
1586550187.191,-59.082,26.855,37.598,-0.488,48.34
1586550187.195,46.875,25.879,34.668,30.762,4.395
1586550187.199,135.742,23.438,35.645,71.777,63.477
1586550187.203,29.297,24.414,39.062,29.297,46.387
1586550187.207,-63.965,29.297,37.598,-18.066,57.129
1586550187.211,3.418,27.832,36.133,6.348,56.641
1586550187.215,128.906,28.32,35.156,58.594,-14.16
1586550187.219,66.406,28.32,33.203,43.457,0.977
1586550187.222,-53.223,25.391,33.203,-4.883,29.297
1586550187.226,-16.113,25.391,33.691,1.465,-20.02
1586550187.23,116.211,24.414,36.133,57.617,3.906
1586550187.234,108.887,22.461,35.156,65.43,8.301
1586550187.238,-46.875,26.367,35.156,1.465,-36.133
1586550187.242,-55.664,27.344,38.574,-4.395,-3.418
1586550187.246,71.289,23.926,37.598,40.527,10.742
1586550187.25,125.488,25.879,39.062,59.57,56.641
1586550187.254,-3.418,27.832,40.039,16.602,73.242
1586550187.258,-60.547,25.391,38.086,-5.859,8.301
1586550187.262,35.645,26.367,39.062,27.832,18.555
1586550187.265,131.348,25.391,35.645,64.941,17.09
1586550187.269,30.273,25.879,34.18,29.785,-16.113
1586550187.273,-66.406,27.344,37.598,-7.812,-6.836
1586550187.277,-0.488,29.785,36.133,15.625,-16.113
1586550187.281,124.023,29.785,35.645,69.824,-26.855
1586550187.285,72.754,31.25,37.109,55.176,3.418
1586550187.289,-54.199,31.738,34.18,-1.465,13.184
1586550187.293,-24.902,29.785,33.203,8.301,26.367
1586550187.297,104.98,34.18,33.203,54.199,17.09
1586550187.301,113.77,34.18,32.715,57.617,8.789
1586550187.305,-30.762,35.156,34.18,-2.93,-20.996
1586550187.308,-51.27,35.645,33.691,-22.949,-9.766
1586550187.312,66.895,32.227,31.738,22.949,30.273
1586550187.316,133.789,32.227,33.203,63.477,23.926
1586550187.32,1.465,31.25,35.645,27.344,67.383
1586550187.324,-65.918,29.785,33.203,-7.812,59.082
1586550187.328,27.344,30.762,28.809,22.949,53.223
1586550187.332,139.648,32.715,32.715,69.824,99.609
1586550187.336,49.805,36.133,36.133,40.039,74.219
1586550187.34,-53.711,35.156,35.156,-9.766,-4.883
1586550187.344,6.836,33.203,34.668,0.977,-12.695
1586550187.347,140.137,34.668,33.203,56.152,63.477
1586550187.351,103.516,34.668,34.668,49.805,64.941
1586550187.355,-45.41,35.645,37.109,-0.977,35.156
1586550187.359,-48.828,36.133,35.645,0,4.883
1586550187.363,64.453,33.691,33.203,45.898,1.465
1586550187.367,97.168,33.691,31.738,54.199,4.883
1586550187.371,-35.156,32.715,33.203,-0.977,65.43
1586550187.375,-64.941,31.25,33.203,-17.09,45.898
1586550187.379,49.805,32.227,29.785,21.484,22.461
1586550187.383,131.836,34.668,29.297,60.059,80.078
1586550187.387,20.996,35.156,32.227,22.949,58.594
1586550187.39,-52.734,33.691,31.738,-13.184,60.059
1586550187.394,25.879,35.645,30.273,18.066,46.875
1586550187.398,134.766,32.227,28.32,72.266,90.82
1586550187.402,53.223,31.25,28.809,44.922,45.41
1586550187.406,-61.523,33.691,29.785,-14.648,15.137
1586550187.41,0,31.25,30.762,-7.324,75.195
1586550187.414,127.93,30.762,31.738,46.387,56.641
1586550187.418,101.074,29.785,35.645,51.27,41.992
1586550187.422,-35.156,27.344,38.086,0.977,16.113
1586550187.426,-40.527,28.32,39.062,-1.465,-10.254
1586550187.43,74.219,29.785,37.598,48.828,4.883
1586550187.433,111.816,31.738,35.156,72.754,27.832
1586550187.437,-25.391,33.691,37.598,11.719,25.879
1586550187.441,-57.129,33.691,37.109,-18.555,13.184
1586550187.445,46.387,34.18,33.691,27.832,40.527
1586550187.449,138.672,35.645,31.738,75.195,69.824
1586550187.453,30.762,33.691,38.086,31.738,44.434
1586550187.457,-69.336,30.762,40.527,-15.625,58.594
1586550187.461,7.324,29.785,36.621,12.207,25.879
1586550187.465,131.836,30.762,36.621,57.129,3.418
1586550187.469,83.008,34.668,35.645,43.457,19.531
1586550187.472,-34.18,35.156,36.133,-2.93,-7.812
1586550187.476,-14.16,32.715,36.621,8.789,30.273
1586550187.48,114.258,29.297,34.18,61.523,7.812
1586550187.484,112.305,28.809,36.621,62.988,-19.043
1586550187.488,-39.551,30.762,39.551,7.324,20.996
1586550187.492,-57.617,29.785,39.551,0,22.949
1586550187.496,55.176,26.367,37.598,46.387,17.578
1586550187.5,124.023,26.367,36.621,75.684,14.16
1586550187.504,0,28.32,38.086,23.438,14.16
1586550187.508,-56.641,30.273,36.621,-3.418,36.133
1586550187.512,33.691,30.273,35.156,35.645,22.461
1586550187.515,146.973,31.738,32.715,73.242,9.277
1586550187.519,63.477,31.25,32.227,47.852,29.785
1586550187.523,-47.363,27.832,34.668,-1.465,29.785
1586550187.527,17.09,25.879,36.621,12.207,50.293
1586550187.531,143.555,25.879,34.668,68.848,51.758
1586550187.535,96.68,26.855,35.156,52.246,17.578
1586550187.539,-36.621,23.926,39.062,-5.859,6.836
1586550187.543,-14.648,24.414,37.598,2.93,31.25
1586550187.547,109.375,28.809,35.645,58.105,32.715
1586550187.551,112.793,30.273,38.086,68.848,29.297
1586550187.555,-44.434,26.855,36.133,13.184,42.48
1586550187.558,-69.336,24.902,36.133,-1.465,36.621
1586550187.562,51.27,27.832,37.598,43.945,38.574
1586550187.566,134.277,29.785,35.645,72.754,95.703
1586550187.57,20.996,30.762,35.645,24.414,90.82
1586550187.574,-63.477,33.691,37.598,-10.254,0.488
1586550187.578,13.184,33.203,37.109,20.02,18.555
1586550187.582,122.559,31.738,34.668,68.848,50.293
1586550187.586,43.945,31.738,35.156,34.668,15.137
1586550187.59,-59.57,31.738,36.133,-14.16,30.273
1586550187.594,-19.531,31.25,35.645,4.883,-20.996
1586550187.597,104.492,29.785,35.645,53.223,-5.371
1586550187.601,89.355,29.785,37.109,51.758,53.223
1586550187.605,-56.641,29.785,35.156,-2.441,0
1586550187.609,-55.176,30.762,35.156,-7.812,-28.809
1586550187.613,76.172,31.738,38.086,46.387,-6.836
1586550187.617,113.77,31.25,35.156,61.523,26.855
1586550187.621,-20.996,28.809,34.668,2.93,-43.457
1586550187.625,-51.27,27.344,36.621,-21.484,-12.695
1586550187.629,54.688,27.832,36.133,20.02,88.867
1586550187.633,126.953,29.297,33.691,60.547,80.078
1586550187.637,3.418,31.25,35.156,12.695,50.781
1586550187.64,-79.102,32.715,38.086,-22.949,37.109
1586550187.644,-0.977,29.297,35.645,9.277,77.148
1586550187.648,121.582,28.32,33.203,56.641,71.289
1586550187.652,55.176,29.785,37.109,37.109,44.922
1586550187.656,-67.871,28.809,39.062,-5.859,91.309
1586550187.66,-24.902,28.32,38.086,9.277,100.098
1586550187.664,110.84,28.32,35.645,54.199,94.727
1586550187.668,111.328,29.785,35.156,44.922,38.574
1586550187.672,-33.203,29.297,36.621,-10.742,23.926
1586550187.676,-46.875,29.297,35.645,-15.137,50.781
1586550187.68,63.477,28.32,36.133,30.762,24.902
1586550187.683,113.77,28.32,37.598,51.27,23.926
1586550187.687,-13.672,28.809,39.551,9.277,48.828
1586550187.691,-63.965,25.391,41.504,-17.578,24.902
1586550187.695,33.691,26.855,38.574,17.578,-13.672
1586550187.699,139.16,29.297,36.133,68.848,36.621
1586550187.703,38.086,28.809,34.18,24.414,44.922
1586550187.707,-67.871,28.32,33.203,-22.461,-53.711
1586550187.711,-10.254,29.297,37.109,5.859,-45.898
1586550187.715,109.863,31.25,37.598,57.129,34.18
1586550187.719,72.754,29.785,38.574,47.363,56.641
1586550187.722,-54.688,29.297,38.574,-1.953,66.406
1586550187.726,-35.156,34.18,35.645,-3.906,84.961
1586550187.73,94.238,37.598,36.621,39.062,77.637
1586550187.734,100.586,35.156,39.551,48.34,80.078
1586550187.738,-32.227,30.273,37.598,-3.906,27.832
1586550187.742,-56.641,31.738,35.645,-12.695,-40.527
1586550187.746,44.922,32.227,37.598,40.039,17.09
1586550187.75,119.141,30.273,38.086,72.754,55.664
1586550187.754,4.395,32.715,38.086,25.879,14.16
1586550187.758,-64.941,33.203,40.039,-3.418,-28.809
1586550187.762,25.391,30.762,38.086,27.344,24.414
1586550187.765,145.996,31.25,30.762,60.547,84.961
1586550187.769,58.105,34.18,29.785,22.461,30.762
1586550187.773,-45.41,36.133,33.691,-20.02,5.859
1586550187.777,-4.395,35.156,35.156,3.418,38.574
1586550187.781,104.004,30.762,36.133,55.176,87.891
1586550187.785,81.543,31.25,39.062,46.387,37.598
1586550187.789,-46.387,31.738,40.527,2.93,-19.043
1586550187.793,-35.156,28.809,37.109,3.906,16.113
1586550187.797,86.914,29.785,33.691,50.293,12.695
1586550187.801,116.699,33.691,36.133,68.359,-23.926
1586550187.805,-17.578,32.715,38.086,11.23,-52.734
1586550187.808,-52.734,27.344,38.574,-7.324,-36.621
1586550187.812,56.641,28.809,39.062,35.156,11.719
1586550187.816,136.23,31.25,41.016,62.988,38.574
1586550187.82,13.184,33.691,41.504,16.602,35.645
1586550187.824,-59.57,34.18,40.039,-13.184,-2.93
1586550187.828,18.066,30.762,40.527,16.602,4.395
1586550187.832,134.766,30.273,40.527,68.848,54.199
1586550187.836,68.359,30.762,39.062,48.34,38.086
1586550187.84,-56.152,33.203,37.109,-4.395,47.363
1586550187.844,-12.207,34.668,36.133,10.742,51.27
1586550187.847,120.117,34.668,35.645,62.5,24.414
1586550187.851,96.191,31.25,37.109,53.223,36.621
1586550187.855,-53.711,29.785,39.062,-0.488,22.461
1586550187.859,-46.387,31.738,37.598,2.441,5.371
1586550187.863,81.055,31.25,36.621,44.922,0.977
1586550187.867,117.676,30.762,37.598,59.57,1.953
1586550187.871,-15.137,30.762,37.598,17.09,-0.977
1586550187.875,-54.199,32.227,34.668,-16.113,62.012
1586550187.879,38.086,30.273,32.715,2.93,44.922
1586550187.883,115.723,27.832,34.18,50.781,10.254
1586550187.887,14.16,33.203,35.645,20.508,6.836
1586550187.89,-70.312,30.273,36.621,-17.578,34.668
1586550187.894,-1.953,27.344,35.645,2.93,37.109
1586550187.898,133.301,34.18,32.715,58.105,38.086
1586550187.902,76.172,34.668,36.133,42.48,44.434
1586550187.906,-53.711,31.738,35.156,-16.602,16.602
1586550187.91,-13.184,31.738,31.25,-5.859,4.395
1586550187.914,105.469,28.32,33.691,56.641,-7.812
1586550187.918,93.75,27.344,35.156,60.059,62.988
1586550187.922,-50.781,29.297,34.668,-6.348,82.52
1586550187.926,-66.895,27.344,32.227,-14.16,31.738
1586550187.93,50.781,26.367,32.715,27.832,-41.504
1586550187.933,114.258,30.273,33.691,52.246,-15.625
1586550187.937,-2.441,33.691,34.668,9.766,-0.488
1586550187.941,-60.547,34.18,37.598,-19.043,-14.16
1586550187.945,30.762,33.691,37.598,13.184,17.578
1586550187.949,133.301,34.668,35.645,56.641,11.719
1586550187.953,41.016,31.25,34.18,21.973,44.922
1586550187.957,-57.617,28.809,34.18,-20.508,23.926
1586550187.961,-10.254,29.297,35.645,2.441,20.996
1586550187.965,116.699,31.738,33.691,53.223,52.246
1586550187.969,76.66,28.809,35.156,45.41,96.191
1586550187.972,-54.688,24.902,37.109,-4.883,60.059
1586550187.976,-28.32,26.855,35.156,-2.93,-17.578
1586550187.98,104.492,24.902,36.621,51.758,-8.301
1586550187.984,124.512,24.414,36.621,65.918,-8.789
1586550187.988,-18.066,27.832,34.18,6.836,35.156
1586550187.992,-44.922,27.344,35.156,-7.324,38.574
1586550187.996,56.152,26.367,34.668,41.504,15.625
1586550188,120.605,29.785,33.691,69.824,33.203
1586550188.004,-5.859,29.297,36.133,24.902,29.297
1586550188.008,-74.707,26.367,37.109,-3.418,48.828
1586550188.012,24.902,29.297,34.668,19.531,49.316
1586550188.015,136.23,29.785,33.203,60.059,30.762
1586550188.019,43.945,25.879,36.621,41.016,-9.766
1586550188.023,-63.965,24.902,38.574,-0.977,29.297
1586550188.027,-13.184,27.344,36.133,10.742,64.941
1586550188.031,119.141,32.227,35.156,61.523,24.414
1586550188.035,104.492,35.156,35.645,57.617,49.316
1586550188.039,-46.875,34.18,35.156,-2.93,56.641
1586550188.043,-46.387,34.18,34.18,-6.836,-1.953
1586550188.047,84.961,34.18,34.668,42.48,-18.555
1586550188.051,116.211,35.645,36.133,59.082,-8.301
1586550188.055,-31.25,33.203,37.109,5.371,0
1586550188.058,-68.359,28.809,38.574,-9.766,-5.371
1586550188.062,50.293,30.762,37.109,35.156,0.488
1586550188.066,146.973,32.227,38.574,71.289,11.23
1586550188.07,25.879,30.273,42.48,32.715,14.648
1586550188.074,-64.453,30.273,40.527,-10.742,-16.602
1586550188.078,16.602,30.273,37.598,17.09,-17.578
1586550188.082,144.043,28.809,34.668,69.336,27.344
1586550188.086,83.008,31.25,32.715,51.758,-14.16
1586550188.09,-46.875,33.691,34.18,-3.418,-31.738
1586550188.094,-18.066,29.297,38.086,1.465,13.184
1586550188.097,105.957,25.879,36.133,57.617,29.785
1586550188.101,104.004,29.785,33.691,57.129,26.367
1586550188.105,-31.25,33.691,34.668,1.953,29.297
1586550188.109,-33.203,32.227,36.621,-0.977,-16.602
1586550188.113,96.68,33.691,36.621,53.711,-26.855
1586550188.117,135.254,36.621,38.086,83.984,32.715
1586550188.121,-10.254,30.762,37.598,28.32,24.902
1586550188.125,-59.57,26.367,34.668,-5.859,49.316
1586550188.129,34.18,28.809,33.203,23.438,52.734
1586550188.133,133.789,31.738,32.227,60.059,29.785
1586550188.137,27.832,34.18,32.227,25.391,29.785
1586550188.14,-77.148,31.738,33.691,-14.648,26.855
1586550188.144,-11.23,32.715,35.156,14.16,46.875
1586550188.148,114.258,33.691,34.668,64.941,62.012
1586550188.152,76.66,30.762,37.598,45.898,34.668
1586550188.156,-46.875,34.668,35.645,-7.324,13.672
1586550188.16,-17.09,37.109,31.738,-7.324,27.344
1586550188.164,104.492,36.133,32.715,45.41,61.035
1586550188.168,104.492,33.203,33.203,57.129,87.402
1586550188.172,-26.855,33.691,34.668,11.23,47.852
1586550188.176,-42.48,36.621,38.574,0.488,3.906
1586550188.18,68.359,32.227,36.133,39.062,-9.766
1586550188.183,131.348,28.809,33.203,78.125,2.441
1586550188.187,11.719,29.297,36.621,29.785,7.324
1586550188.191,-53.223,31.25,38.574,-3.418,-42.48
1586550188.195,31.738,32.227,34.668,21.973,-43.457
1586550188.199,145.508,30.762,36.621,69.336,35.156
1586550188.203,48.828,30.273,40.039,41.992,44.922
1586550188.207,-63.965,26.855,38.574,-9.277,41.992
1586550188.211,-10.742,25.391,36.621,8.301,54.199
1586550188.215,112.305,25.879,36.621,65.43,45.898
1586550188.219,85.449,30.273,38.086,48.34,59.082
1586550188.222,-42.969,30.273,40.039,-14.16,15.137
1586550188.226,-25.879,24.902,39.062,-7.812,3.906
1586550188.23,94.727,25.391,36.621,49.805,47.852
1586550188.234,110.352,28.809,37.598,73.73,37.109
1586550188.238,-35.156,30.762,40.527,13.184,-5.371
1586550188.242,-56.152,29.785,40.039,-16.113,17.09
1586550188.246,70.801,31.25,39.062,20.996,40.527
1586550188.25,154.785,33.203,36.133,60.059,41.504
1586550188.254,31.25,33.691,36.621,30.762,35.645
1586550188.258,-56.641,32.227,40.527,-1.953,76.66
1586550188.262,19.043,29.785,39.062,14.16,63.965
1586550188.265,132.324,27.832,36.621,60.059,45.41
1586550188.269,50.293,30.273,36.133,33.691,39.551
1586550188.273,-62.5,31.25,34.668,-18.066,27.344
1586550188.277,-24.902,29.297,37.109,0.977,33.203
1586550188.281,92.773,31.738,39.551,54.688,12.695
1586550188.285,83.496,33.691,40.039,53.223,41.016
1586550188.289,-48.828,32.715,43.457,5.371,48.34
1586550188.293,-43.457,29.297,41.504,-4.883,50.781
1586550188.297,73.242,25.879,40.039,41.504,65.918
1586550188.301,111.328,28.809,40.039,59.57,54.688
1586550188.305,-14.16,31.25,40.527,6.836,13.184
1586550188.308,-47.852,31.738,41.016,-1.465,6.836
1586550188.312,51.758,32.227,37.109,39.062,10.742
1586550188.316,142.578,33.203,38.086,76.66,52.246
1586550188.32,33.691,35.156,39.551,35.645,34.668
1586550188.324,-57.617,36.133,37.598,-12.695,-27.832
1586550188.328,8.789,36.133,33.691,3.906,-2.93
1586550188.332,116.699,39.062,32.227,53.711,31.738
1586550188.336,52.246,40.039,34.668,34.18,-13.672
1586550188.34,-73.73,36.133,37.109,-14.648,1.465
1586550188.344,-25.879,36.621,37.598,-9.277,16.113
1586550188.347,118.164,37.109,34.18,35.156,-19.043
1586550188.351,109.375,30.273,32.715,45.898,17.09
1586550188.355,-48.828,29.785,35.645,-8.301,28.809
1586550188.359,-60.059,32.715,36.621,-15.625,8.789
1586550188.363,60.059,30.273,35.156,37.109,38.574
1586550188.367,114.746,31.25,34.18,67.383,41.992
1586550188.371,-16.602,31.25,35.645,20.508,27.832
1586550188.375,-69.824,29.785,34.668,-14.16,39.062
1586550188.379,22.461,27.832,33.691,17.09,30.762
1586550188.383,123.535,26.367,32.715,64.941,20.508
1586550188.387,33.691,30.762,33.203,29.297,-7.324
1586550188.39,-60.059,33.203,32.715,-20.508,-2.441
1586550188.394,5.371,32.227,29.785,0.488,-13.184
1586550188.398,126.465,35.156,29.297,58.105,39.062
1586550188.402,81.055,34.18,32.227,47.852,13.184
1586550188.406,-56.152,29.785,36.621,-1.465,-15.137
1586550188.41,-36.133,29.297,39.062,-0.977,19.043
1586550188.414,95.703,28.32,39.062,43.457,21.973
1586550188.418,100.586,29.297,36.133,56.641,-25.879
1586550188.422,-34.18,28.32,37.598,5.371,-58.105
1586550188.426,-53.223,28.809,37.109,-5.371,-37.109
1586550188.43,50.293,32.715,36.621,35.156,-29.785
1586550188.433,120.605,34.18,37.109,61.523,39.062
1586550188.437,2.93,31.738,34.668,14.16,20.508
1586550188.441,-60.547,31.25,34.18,-20.02,-42.48
1586550188.445,22.949,34.668,35.645,14.648,-28.809
1586550188.449,138.672,35.645,35.645,62.5,-1.465
