timestamps,TP9,AF7,AF8,TP10,Right AUX
1586549941.004,-30.273,29.297,33.203,-14.648,35.156
1586549941.008,-43.945,28.809,31.738,-40.039,41.016
1586549941.011,95.215,30.273,33.203,21.973,43.457
1586549941.015,175.781,27.832,34.18,73.73,26.855
1586549941.019,14.16,29.297,37.109,12.695,16.602
1586549941.023,-79.59,28.809,34.668,-36.621,-8.301
1586549941.027,37.109,26.855,31.738,0,-0.488
1586549941.031,175.781,29.297,33.691,71.777,34.18
1586549941.035,55.176,32.227,36.621,41.016,10.742
1586549941.039,-89.355,33.203,37.109,-37.598,-38.086
1586549941.043,-2.93,30.273,35.156,-23.926,-47.363
1586549941.047,159.18,29.785,33.691,55.664,-87.891
1586549941.051,109.863,29.297,36.621,55.176,-27.832
1586549941.054,-70.801,27.344,38.574,-23.926,-6.836
1586549941.058,-37.598,28.809,35.156,-25.391,-20.996
1586549941.062,125,32.715,31.25,45.898,0
1586549941.066,160.156,33.691,32.715,80.566,14.16
1586549941.07,-17.09,30.762,38.574,7.812,5.859
1586549941.074,-65.918,30.273,39.062,-28.809,0
1586549941.078,64.941,30.762,38.574,24.902,-7.812
1586549941.082,172.852,32.227,36.621,74.219,8.789
1586549941.086,23.438,31.25,32.715,25.391,51.27
1586549941.09,-79.59,28.809,33.691,-39.062,41.504
1586549941.094,25.879,26.855,35.156,-13.184,27.344
1586549941.097,181.641,24.902,33.203,69.336,3.906
1586549941.101,79.59,25.879,34.18,41.504,-7.812
1586549941.105,-83.496,30.273,34.668,-27.832,25.391
1586549941.109,-14.648,27.832,32.715,-10.254,53.711
1586549941.113,154.297,27.832,29.297,60.059,67.871
1586549941.117,137.695,34.18,27.832,66.406,42.48
1586549941.121,-47.363,36.133,31.25,-14.648,59.57
1586549941.125,-40.527,34.668,33.203,-22.949,10.742
1586549941.129,106.445,33.691,33.203,49.805,-14.16
1586549941.133,164.062,32.715,30.762,76.66,44.922
1586549941.136,-9.766,33.203,31.25,-0.488,28.809
1586549941.14,-69.824,28.809,31.25,-40.039,42.969
1586549941.144,55.664,25.391,29.785,12.695,34.18
1586549941.148,170.41,28.809,32.227,81.543,37.598
1586549941.152,29.785,29.297,34.668,34.18,65.918
1586549941.156,-80.078,29.785,33.691,-39.062,58.105
1586549941.16,14.16,29.785,33.203,-4.883,15.625
1586549941.164,159.668,28.32,31.738,69.336,-40.039
1586549941.168,87.402,31.25,31.25,48.34,-15.137
1586549941.172,-68.359,32.227,30.762,-22.461,34.668
1586549941.176,-16.602,32.227,33.691,-25.391,-37.109
1586549941.179,130.371,32.227,33.691,47.363,-37.598
1586549941.183,133.789,30.762,34.18,69.336,68.359
1586549941.187,-48.34,28.809,41.016,-8.789,59.082
1586549941.191,-49.316,28.32,38.086,-24.414,10.742
1586549941.195,95.703,29.785,30.762,45.898,47.852
1586549941.199,166.992,30.273,36.621,91.797,72.754
1586549941.203,-8.301,29.785,44.434,21.484,40.039
1586549941.207,-80.566,27.344,40.527,-34.668,-7.812
1586549941.211,43.457,22.461,35.645,7.324,-17.09
1586549941.215,165.527,21.484,31.25,70.312,8.301
1586549941.219,43.457,24.902,31.25,28.32,0
1586549941.222,-85.938,24.902,33.691,-35.156,0
1586549941.226,0,25.391,33.203,-16.113,4.883
1586549941.23,159.668,27.344,33.203,56.641,43.945
1586549941.234,103.027,27.832,36.133,51.27,10.742
1586549941.238,-69.336,25.879,38.574,-31.738,22.949
1586549941.242,-29.785,25.391,38.574,-30.762,27.344
1586549941.246,126.465,30.273,36.133,45.898,12.695
1586549941.25,145.02,35.156,36.133,72.266,77.148
1586549941.254,-41.016,33.203,37.109,-10.742,18.066
1586549941.258,-64.453,29.785,35.156,-39.551,-7.324
1586549941.261,73.73,29.785,33.203,24.902,23.926
1586549941.265,166.992,29.297,33.203,75.684,62.5
1586549941.269,14.16,26.855,32.715,17.09,30.273
1586549941.273,-69.336,24.902,34.668,-34.668,-12.207
1586549941.277,42.48,22.949,33.691,4.395,2.93
1586549941.281,176.27,24.902,27.832,75.195,8.301
1586549941.285,72.266,27.832,30.273,39.062,5.371
1586549941.289,-73.73,30.273,35.156,-37.109,-19.531
1586549941.293,-5.371,34.18,33.691,-23.926,-7.324
1586549941.297,143.555,32.227,33.203,54.199,15.137
1586549941.301,104.004,31.738,32.715,59.57,14.648
1586549941.304,-78.613,30.762,30.273,-20.508,-0.977
1586549941.308,-60.059,28.809,29.785,-22.949,-19.043
1586549941.312,102.539,28.32,30.273,41.504,6.348
1586549941.316,152.344,29.297,32.227,73.242,9.766
1586549941.32,-25.391,31.25,31.738,3.418,6.836
1586549941.324,-66.406,32.227,29.785,-33.691,-1.953
1586549941.328,68.359,30.273,29.297,20.508,-17.09
1586549941.332,174.805,28.809,29.297,78.613,78.125
1586549941.336,25.391,32.227,31.25,32.227,66.406
1586549941.34,-84.473,31.25,33.691,-31.738,-13.672
1586549941.344,20.02,30.762,34.668,1.953,0
1586549941.347,171.875,33.203,31.25,75.684,5.859
1586549941.351,79.102,33.203,30.762,47.852,-24.902
1586549941.355,-72.266,34.18,31.738,-25.879,-80.078
1586549941.359,-11.719,33.691,30.273,-22.949,-12.207
1586549941.363,137.695,25.879,28.809,43.945,34.18
1586549941.367,129.883,20.508,27.832,62.012,42.48
1586549941.371,-51.758,24.902,31.738,-13.672,-1.953
1586549941.375,-52.734,29.785,31.738,-34.18,-34.18
1586549941.379,103.516,28.809,28.32,37.109,47.852
1586549941.383,170.898,27.832,29.297,79.59,79.102
1586549941.386,-0.977,27.344,28.32,12.695,32.227
1586549941.39,-68.848,24.902,29.785,-23.926,46.387
1586549941.394,48.34,22.949,31.25,17.09,27.344
1586549941.398,175.781,23.926,28.32,72.754,-38.574
1586549941.402,51.758,28.32,28.809,29.297,-3.418
1586549941.406,-77.637,29.297,30.273,-37.598,39.551
1586549941.41,2.93,26.367,31.738,-0.977,30.273
1586549941.414,152.832,24.902,33.203,77.148,-13.672
1586549941.418,84.473,22.949,33.691,62.012,4.395
1586549941.422,-80.078,25.391,33.691,-17.578,37.109
1586549941.426,-25.879,29.785,32.227,-29.297,20.02
1586549941.429,131.348,30.762,30.762,43.457,37.598
1586549941.433,135.742,32.715,31.738,66.406,13.672
1586549941.437,-43.945,30.273,29.297,-7.324,-36.621
1586549941.441,-60.547,26.367,28.809,-30.273,-25.879
1586549941.445,85.449,27.344,31.738,26.367,43.945
1586549941.449,159.18,26.367,28.809,74.707,61.035
1586549941.453,-11.719,26.367,26.367,10.742,33.691
1586549941.457,-82.52,26.855,28.32,-38.086,13.184
1586549941.461,39.551,26.367,27.344,7.324,21.484
1586549941.465,169.922,26.855,26.367,75.195,69.336
1586549941.469,46.875,28.32,30.273,43.457,37.109
1586549941.472,-84.473,29.297,35.645,-22.461,49.316
1586549941.476,-0.977,28.32,36.133,-5.371,15.625
1586549941.48,146.973,24.414,31.25,64.453,12.207
1586549941.484,96.191,23.438,28.809,54.688,56.152
1586549941.488,-81.543,24.414,31.25,-21.973,36.621
1586549941.492,-50.781,25.391,32.715,-28.32,27.832
1586549941.496,107.422,28.32,29.785,38.086,7.324
1586549941.5,140.625,30.762,32.715,69.824,-3.906
1586549941.504,-51.27,32.227,34.668,-1.953,-3.418
1586549941.508,-87.891,29.297,32.227,-30.273,-31.738
1586549941.511,61.035,28.32,30.762,21.973,30.273
1586549941.515,158.691,31.25,28.32,73.73,98.633
1586549941.519,7.324,30.273,31.25,22.949,18.555
1586549941.523,-80.078,27.344,35.156,-28.809,-4.395
1586549941.527,36.133,29.785,32.715,2.93,44.922
1586549941.531,174.316,31.25,30.762,65.43,-4.883
1586549941.535,66.406,31.25,32.227,35.156,-10.742
1586549941.539,-75.684,30.273,34.18,-28.809,56.641
1586549941.543,-12.207,30.273,36.133,-14.16,-6.348
1586549941.547,142.578,32.227,34.18,61.035,-21.973
1586549941.551,125.977,33.691,34.668,59.082,44.434
1586549941.554,-58.594,35.645,39.062,-28.32,-1.465
1586549941.558,-37.598,34.668,40.039,-26.855,-40.039
1586549941.562,115.723,35.645,33.203,43.945,-2.93
1586549941.566,150.391,30.762,30.762,72.754,38.086
1586549941.57,-29.785,27.344,32.715,3.906,39.062
1586549941.574,-70.801,30.273,30.762,-33.691,-44.434
1586549941.578,57.617,32.715,31.25,15.137,-46.875
1586549941.582,165.527,33.691,34.18,69.824,34.668
1586549941.586,25.879,35.156,35.156,20.508,4.395
1586549941.59,-88.379,34.668,30.273,-44.434,-33.691
1586549941.594,10.742,34.18,26.367,-18.066,15.625
1586549941.597,158.203,32.715,28.809,65.43,25.391
1586549941.601,70.312,32.227,30.762,43.945,-1.953
1586549941.605,-88.379,32.715,30.762,-39.062,28.809
1586549941.609,-28.809,31.25,29.297,-29.785,70.801
1586549941.613,131.348,29.785,26.367,40.527,62.5
1586549941.617,124.023,31.25,29.297,55.664,-6.836
1586549941.621,-60.059,31.738,29.297,-22.461,41.504
1586549941.625,-57.129,31.738,27.344,-41.992,64.941
1586549941.629,88.379,30.762,28.809,24.902,17.09
1586549941.633,152.832,30.273,31.738,69.336,23.926
1586549941.636,-15.625,32.227,33.691,9.277,-2.441
1586549941.64,-79.102,32.715,32.227,-34.18,-6.348
1586549941.644,49.316,30.762,32.227,10.742,53.711
1586549941.648,168.457,29.297,31.25,69.824,29.297
1586549941.652,31.25,30.273,30.762,25.879,39.062
1586549941.656,-86.914,30.273,33.691,-36.621,14.648
1586549941.66,0.977,28.32,32.227,-11.719,-31.738
1586549941.664,148.926,28.809,30.762,65.918,-17.578
1586549941.668,97.656,29.297,34.18,57.129,-30.762
1586549941.672,-74.219,30.273,33.691,-24.414,-57.617
1586549941.676,-42.48,31.25,34.668,-25.391,-24.414
1586549941.679,115.234,28.809,33.203,50.293,-7.812
1586549941.683,140.625,29.785,34.18,75.195,-4.883
1586549941.687,-45.41,31.25,35.645,2.441,26.855
1586549941.691,-64.941,29.297,30.273,-21.973,44.922
1586549941.695,83.496,29.785,30.762,32.715,31.738
1586549941.699,165.527,32.227,34.18,79.59,31.25
1586549941.703,3.418,32.715,37.109,25.391,43.457
1586549941.707,-78.125,32.715,40.527,-27.344,74.707
1586549941.711,37.109,31.738,40.039,9.766,13.672
1586549941.715,168.457,32.715,39.551,77.148,-37.598
1586549941.719,56.152,33.203,40.527,36.133,11.23
1586549941.722,-82.52,32.715,41.016,-37.598,-19.043
1586549941.726,-8.789,33.203,40.039,-17.578,-31.25
1586549941.73,148.926,34.668,39.551,62.5,-3.418
1586549941.734,117.676,37.109,37.109,61.523,-3.418
1586549941.738,-55.664,34.668,35.645,-19.043,34.668
1586549941.742,-40.527,33.203,36.621,-25.879,9.277
1586549941.746,109.375,32.715,35.156,47.363,13.672
1586549941.75,141.602,32.715,33.691,74.707,4.395
1586549941.754,-37.598,32.227,33.203,1.953,-15.137
1586549941.758,-64.941,33.203,31.738,-29.297,21.484
1586549941.761,74.707,33.691,33.203,20.996,6.836
1586549941.765,172.852,34.18,33.203,76.66,1.465
1586549941.769,17.578,34.668,33.203,25.879,-1.465
1586549941.773,-85.449,33.691,34.18,-29.785,18.555
1586549941.777,25.391,32.715,29.297,0,30.762
1586549941.781,174.316,31.25,27.344,73.73,16.113
1586549941.785,69.824,30.273,34.18,51.27,0.488
1586549941.789,-84.473,30.273,35.156,-17.09,5.859
1586549941.793,-6.348,27.832,34.18,0.488,52.734
1586549941.797,148.926,28.32,33.203,69.824,51.758
1586549941.801,119.141,33.203,28.809,70.801,9.277
1586549941.804,-70.801,34.668,29.297,-10.254,18.066
1586549941.808,-63.477,34.18,28.32,-31.738,14.16
1586549941.812,83.008,29.785,29.785,28.32,3.906
1586549941.816,135.254,28.32,33.203,75.195,-3.906
1586549941.82,-30.273,31.25,31.738,7.812,-14.16
1586549941.824,-72.754,35.645,29.785,-34.18,17.578
1586549941.828,58.594,34.18,29.785,16.602,27.832
1586549941.832,173.34,30.762,29.785,75.684,51.758
1586549941.836,35.645,31.25,34.18,32.227,18.066
1586549941.84,-83.008,30.762,32.715,-32.227,-58.594
1586549941.844,2.93,30.762,29.297,-6.348,-16.113
1586549941.847,153.32,32.715,32.715,65.918,-10.742
1586549941.851,79.102,30.762,33.691,43.457,-30.762
1586549941.855,-94.727,25.391,33.691,-27.832,-15.625
1586549941.859,-42.48,29.297,35.156,-20.02,40.527
1586549941.863,111.328,32.715,31.738,48.34,54.199
1586549941.867,112.793,31.25,26.367,49.805,64.453
1586549941.871,-69.336,28.32,30.273,-22.949,105.469
1586549941.875,-77.148,27.832,31.25,-35.156,30.273
1586549941.879,72.754,30.762,27.344,25.879,-29.297
1586549941.883,143.555,27.344,29.297,76.66,-30.273
1586549941.886,-16.113,27.344,32.227,14.648,-3.418
1586549941.89,-82.031,31.25,30.762,-34.668,26.855
1586549941.894,37.598,30.273,31.738,3.418,9.766
1586549941.898,161.133,29.785,31.25,66.406,27.832
1586549941.902,29.297,32.715,32.227,31.25,88.867
1586549941.906,-97.168,31.25,33.691,-39.551,61.035
1586549941.91,-0.488,30.762,32.227,-18.066,40.039
1586549941.914,144.043,32.227,29.297,60.059,42.969
1586549941.918,83.496,32.227,30.273,56.641,6.836
1586549941.922,-76.66,34.668,33.691,-18.555,-17.09
1586549941.926,-29.785,34.668,32.227,-26.367,41.504
1586549941.929,122.559,33.691,35.156,43.945,77.148
1586549941.933,136.23,33.203,35.156,66.895,63.477
1586549941.937,-36.621,33.691,34.18,-2.93,-0.977
1586549941.941,-63.965,32.715,35.645,-25.879,22.461
1586549941.945,65.918,31.738,35.156,26.367,41.016
1586549941.949,157.715,31.738,33.691,76.66,21.973
1586549941.953,-0.488,33.691,36.133,24.414,32.227
1586549941.957,-85.449,33.691,35.645,-29.785,-41.504
1586549941.961,30.762,31.25,33.691,0.977,-27.344
1586549941.965,162.598,33.691,32.227,68.848,107.91
1586549941.969,62.012,34.668,33.203,39.551,80.566
1586549941.972,-74.219,35.156,36.133,-29.785,-17.578
1586549941.976,-13.184,35.156,35.156,-16.113,-19.531
1586549941.98,132.812,33.691,33.203,63.477,-10.742
1586549941.984,99.121,33.691,32.227,66.895,22.461
1586549941.988,-80.566,33.691,35.156,-7.324,16.602
1586549941.992,-62.988,36.133,36.133,-12.695,1.953
1586549941.996,92.285,37.598,32.715,54.688,30.762
1586549942,154.785,39.062,34.668,85.449,34.18
1586549942.004,-20.02,38.086,38.086,5.859,26.367
1586549942.008,-73.242,38.086,39.062,-34.18,-10.742
1586549942.011,68.848,38.574,37.598,18.066,21.973
1586549942.015,168.945,38.086,33.203,76.66,77.637
1586549942.019,14.16,38.574,32.227,26.367,11.23
1586549942.023,-83.984,37.598,33.203,-32.715,49.805
1586549942.027,21.973,38.574,35.156,4.883,73.242
1586549942.031,156.25,35.156,35.156,75.684,38.574
1586549942.035,60.547,31.738,33.203,41.504,-20.996
1586549942.039,-87.402,34.18,35.156,-30.273,-17.578
1586549942.043,-25.391,34.18,31.738,-23.926,41.504
1586549942.047,118.164,29.785,28.809,50.293,16.602
1586549942.051,99.609,29.785,30.273,62.988,24.414
1586549942.054,-77.148,38.574,31.25,-19.531,64.941
1586549942.058,-64.453,41.016,32.227,-29.785,8.301
1586549942.062,88.867,38.086,29.297,32.715,-5.859
1586549942.066,145.508,37.598,25.879,70.801,-19.043
1586549942.07,-26.367,35.156,31.25,10.742,-53.223
1586549942.074,-84.473,35.156,32.227,-33.691,13.184
1586549942.078,42.48,33.691,28.809,12.695,63.477
1586549942.082,162.109,35.156,31.25,80.566,36.133
1586549942.086,29.297,39.551,35.645,34.668,5.371
1586549942.09,-87.891,36.621,37.598,-26.855,1.953
1586549942.094,4.395,37.598,34.18,-1.953,36.133
1586549942.097,158.203,37.598,33.691,75.684,43.457
1586549942.101,97.656,33.203,37.109,68.359,58.105
1586549942.105,-82.031,33.691,37.598,-16.602,76.172
1586549942.109,-49.805,36.133,36.133,-20.02,64.453
1586549942.113,114.746,36.621,33.203,49.316,-9.277
1586549942.117,126.465,36.621,31.25,65.43,3.906
1586549942.121,-68.359,35.156,35.645,-8.789,25.391
1586549942.125,-82.52,33.203,37.109,-32.227,14.648
1586549942.129,71.289,33.203,34.668,24.414,20.508
1586549942.133,150.391,33.203,33.691,69.824,-50.781
1586549942.136,-7.812,35.156,33.691,6.836,0.977
1586549942.14,-77.148,35.156,32.227,-36.133,8.789
1586549942.144,34.18,36.133,31.738,6.836,-53.223
1586549942.148,165.527,36.621,32.715,80.566,23.438
1586549942.152,55.664,35.645,32.227,46.387,34.18
1586549942.156,-85.449,35.645,32.715,-28.32,-13.672
1586549942.16,-7.812,32.715,33.691,-6.836,-31.25
1586549942.164,146.484,33.691,32.227,62.988,-29.297
1586549942.168,101.074,36.133,33.203,55.176,-33.203
1586549942.172,-64.453,36.621,33.691,-17.09,-3.906
1586549942.176,-36.621,36.133,27.832,-25.879,4.395
1586549942.179,107.91,37.109,26.855,36.133,0.488
1586549942.183,129.395,36.133,30.762,65.918,24.414
1586549942.187,-51.758,33.691,33.203,-7.812,32.227
1586549942.191,-74.219,32.715,33.691,-34.18,-7.324
1586549942.195,72.266,33.203,32.715,30.762,-4.883
1586549942.199,175.293,33.691,33.203,87.891,5.859
1586549942.203,19.043,36.133,33.691,22.949,-3.906
1586549942.207,-75.684,33.203,31.25,-39.062,16.113
1586549942.211,32.715,33.203,27.832,-2.441,12.207
1586549942.215,171.387,32.715,27.832,64.453,56.641
1586549942.219,71.777,31.25,30.762,38.086,45.898
1586549942.222,-77.637,36.621,32.227,-31.738,-3.418
1586549942.226,-11.23,34.18,30.273,-24.414,60.059
1586549942.23,135.254,32.715,27.344,55.664,47.852
1586549942.234,99.609,33.203,31.25,62.012,-35.645
1586549942.238,-74.707,32.227,34.18,-25.391,-11.719
1586549942.242,-62.5,32.715,35.156,-36.621,9.766
1586549942.246,88.867,32.227,38.086,39.062,76.172
1586549942.25,143.066,31.738,36.133,71.289,75.684
1586549942.254,-34.18,30.762,35.645,0.488,-21.484
1586549942.258,-84.473,27.832,35.645,-32.227,25.391
1586549942.261,47.852,26.367,35.645,20.508,44.922
1586549942.265,152.344,29.297,35.156,80.566,15.137
1586549942.269,13.672,34.18,35.156,28.32,26.367
1586549942.273,-84.961,32.715,33.203,-29.785,14.16
1586549942.277,5.859,27.832,32.715,4.883,18.555
1586549942.281,150.391,27.832,31.738,75.684,46.875
1586549942.285,77.637,29.785,33.203,53.711,51.27
1586549942.289,-84.961,28.32,36.133,-21.484,4.395
1586549942.293,-37.109,28.32,37.109,-8.301,14.648
1586549942.297,121.582,30.273,35.645,66.406,47.852
1586549942.301,125.488,29.785,32.715,80.078,41.992
1586549942.304,-56.152,30.273,33.203,-4.395,9.766
1586549942.308,-63.965,25.391,35.645,-31.25,-38.574
1586549942.312,75.195,23.926,36.621,36.621,23.926
1586549942.316,147.461,27.344,38.086,82.52,51.758
1586549942.32,-8.789,28.32,40.039,18.066,17.578
1586549942.324,-75.195,26.367,37.598,-25.879,-42.969
1586549942.328,43.945,21.973,35.156,27.832,-54.199
1586549942.332,160.156,22.461,36.133,86.914,-9.766
1586549942.336,35.156,24.902,33.203,34.18,6.348
1586549942.34,-83.496,20.996,31.738,-24.902,20.508
1586549942.344,-0.488,22.461,32.715,2.441,33.691
1586549942.347,142.09,28.32,33.203,71.289,32.715
1586549942.351,82.52,31.738,37.109,61.523,-7.324
1586549942.355,-83.984,33.203,35.645,-16.602,-13.672
1586549942.359,-53.711,28.809,30.273,-34.18,-1.465
1586549942.363,102.539,27.832,24.902,25.391,-30.273
1586549942.367,126.465,29.297,23.438,54.688,4.395
1586549942.371,-61.523,27.832,27.832,-15.625,3.906
1586549942.375,-88.379,25.879,29.785,-40.527,-44.434
1586549942.379,54.688,27.832,30.762,19.531,18.555
1586549942.383,149.414,31.738,31.738,64.453,83.008
1586549942.386,-11.719,32.715,32.227,5.859,28.809
1586549942.39,-94.727,31.738,30.762,-42.969,-0.977
1586549942.394,26.855,34.18,29.297,-2.93,-0.977
1586549942.398,164.062,38.086,29.297,69.824,7.324
1586549942.402,53.711,38.086,29.785,38.574,26.855
1586549942.406,-89.355,35.645,33.691,-26.855,-0.488
1586549942.41,-22.461,34.18,35.156,-20.02,-12.207
1586549942.414,133.301,30.273,36.621,50.781,13.184
1586549942.418,94.238,26.367,39.062,58.594,-9.766
1586549942.422,-81.543,29.785,37.598,-25.879,28.809
1586549942.426,-52.734,31.25,36.133,-38.086,44.434
1586549942.429,105.469,31.738,35.645,38.574,39.062
1586549942.433,143.555,33.691,35.645,72.754,86.426
1586549942.437,-26.855,33.691,37.598,-2.441,41.504
1586549942.441,-68.359,31.25,38.086,-30.273,-49.316
1586549942.445,53.711,30.762,34.18,29.297,-29.785
1586549942.449,153.32,30.273,32.715,83.008,-5.371
1586549942.453,12.695,32.227,36.621,30.273,-43.457
1586549942.457,-82.031,32.715,39.062,-27.344,16.113
1586549942.461,18.555,32.227,37.598,1.465,20.508
1586549942.465,155.762,32.227,34.668,68.359,12.207
1586549942.469,59.57,32.715,39.062,52.734,-4.395
1586549942.472,-98.145,30.762,35.645,-22.949,-68.359
1586549942.476,-33.203,27.344,29.297,-21.484,23.926
1586549942.48,123.047,26.367,32.715,50.293,98.145
1586549942.484,104.98,29.785,34.668,54.199,24.414
1586549942.488,-56.152,33.691,33.691,-16.602,13.184
1586549942.492,-44.434,32.227,32.227,-27.344,11.23
1586549942.496,99.121,31.738,33.691,36.621,-26.855
1586549942.5,149.414,30.762,36.621,75.195,-46.387
1586549942.504,-25.879,30.273,38.086,5.371,-14.648
1586549942.508,-78.613,29.297,37.598,-42.969,-7.324
1586549942.511,46.875,29.297,33.203,2.93,3.906
1586549942.515,159.668,29.297,31.25,68.848,35.645
1586549942.519,23.438,28.32,33.691,21.484,-17.09
1586549942.523,-97.656,24.902,29.785,-40.039,-2.441
1586549942.527,-0.488,24.902,25.391,-14.648,32.715
1586549942.531,148.438,28.809,28.32,54.688,14.648
1586549942.535,68.359,28.809,31.738,43.945,20.02
1586549942.539,-89.844,30.273,33.203,-27.344,-13.184
1586549942.543,-43.945,32.715,31.25,-26.367,-11.719
1586549942.547,109.375,29.785,29.785,42.48,-10.254
1586549942.551,113.77,21.973,31.25,61.035,10.742
1586549942.554,-64.453,19.531,33.203,-18.555,1.465
1586549942.558,-66.406,25.391,31.25,-36.133,-13.672
1586549942.562,73.73,26.855,30.273,30.762,30.273
1586549942.566,143.555,23.926,31.738,68.359,42.48
1586549942.57,-18.555,24.902,30.273,7.324,-5.371
1586549942.574,-100.098,24.902,27.832,-37.109,-5.859
1586549942.578,27.344,24.414,27.832,1.953,0.488
1586549942.582,161.621,23.926,27.832,74.707,15.137
1586549942.586,36.621,20.996,29.785,40.527,19.043
1586549942.59,-86.426,19.531,29.785,-27.832,18.066
1586549942.594,-10.254,21.973,30.762,-4.883,-2.441
1586549942.597,138.184,21.973,31.738,66.895,17.09
1586549942.601,90.332,22.461,31.738,55.664,43.945
1586549942.605,-89.355,26.367,31.25,-18.066,-1.465
1586549942.609,-64.941,26.855,32.715,-15.137,14.16
1586549942.613,99.121,27.344,34.668,51.27,54.199
1586549942.617,135.254,31.25,35.156,71.289,-1.953
1586549942.621,-38.574,35.156,35.645,-1.953,-43.457
1586549942.625,-62.5,35.645,34.668,-27.344,3.906
1586549942.629,74.219,36.133,30.762,24.902,16.113
1586549942.633,156.738,37.598,29.785,73.242,14.648
1586549942.636,0.977,36.133,32.715,28.809,24.902
1586549942.64,-84.961,33.691,36.133,-24.414,10.254
1586549942.644,20.02,35.156,33.203,1.465,-36.133
1586549942.648,159.668,34.668,31.738,77.148,13.184
1586549942.652,55.176,35.645,34.18,44.922,41.016
1586549942.656,-89.844,32.227,31.25,-34.668,-2.93
1586549942.66,-14.16,31.25,27.832,-19.531,32.227
1586549942.664,137.207,32.715,25.879,53.223,24.414
1586549942.668,94.238,31.738,28.809,63.477,9.277
1586549942.672,-86.426,30.762,29.785,-14.648,15.137
1586549942.676,-61.523,28.32,26.855,-25.879,52.734
1586549942.679,84.473,28.32,26.367,42.48,78.125
1586549942.683,131.348,30.273,28.809,70.801,20.508
1586549942.687,-41.992,29.785,29.785,0.488,35.645
1586549942.691,-91.797,29.297,29.297,-33.203,-10.254
1586549942.695,41.504,26.855,30.273,21.973,-27.344
1586549942.699,146.484,29.297,31.738,80.078,-1.465
1586549942.703,9.766,29.297,32.715,22.949,7.324
1586549942.707,-90.332,26.367,32.227,-39.062,-18.555
1586549942.711,10.254,30.273,26.855,-13.184,-53.711
1586549942.715,152.832,30.762,26.855,58.594,-25.391
1586549942.719,64.941,30.762,29.785,39.551,54.688
1586549942.722,-82.031,32.227,29.785,-31.738,40.527
1586549942.726,-28.809,29.297,29.785,-20.508,-8.301
1586549942.73,116.699,27.832,29.785,45.898,37.598
1586549942.734,108.398,31.25,32.715,62.5,41.016
1586549942.738,-64.453,34.18,34.18,-13.184,32.715
1586549942.742,-57.617,32.227,33.203,-30.762,30.762
1586549942.746,90.82,34.18,34.18,38.086,-3.418
1586549942.75,155.273,39.062,35.645,74.219,-57.617
1586549942.754,-20.508,33.203,33.691,3.906,-28.809
1586549942.758,-84.473,28.809,29.785,-40.527,66.406
1586549942.761,38.086,28.809,30.273,0.977,12.207
1586549942.765,146.973,29.297,30.762,67.383,-5.859
1586549942.769,5.859,31.738,32.715,25.879,27.832
1586549942.773,-108.398,31.25,35.156,-40.527,-3.906
1586549942.777,-15.625,31.25,34.668,-7.324,17.578
1586549942.781,126.465,32.715,34.18,67.383,65.918
1586549942.785,60.059,32.715,33.203,47.852,32.715
1586549942.789,-103.027,28.32,33.691,-28.809,50.293
1586549942.793,-53.223,26.855,33.691,-22.461,20.508
1586549942.797,104.004,34.668,34.18,40.039,17.578
1586549942.801,106.934,36.621,37.109,53.223,-1.465
1586549942.804,-66.895,36.621,36.621,-20.02,23.438
1586549942.808,-77.637,36.621,37.109,-46.387,85.449
1586549942.812,61.523,33.203,34.18,17.578,90.332
1586549942.816,138.184,32.227,32.227,70.801,111.328
1586549942.82,-24.902,33.691,34.18,13.672,41.992
1586549942.824,-98.633,31.738,35.156,-33.691,2.93
1586549942.828,13.184,30.762,37.109,0.488,24.414
1586549942.832,147.461,31.738,34.668,73.242,-0.488
1586549942.836,34.668,29.297,34.668,41.992,34.18
1586549942.84,-104.492,31.738,35.156,-33.203,38.574
1586549942.844,-22.949,32.227,34.18,-10.254,42.969
1586549942.847,132.812,29.297,30.273,60.547,91.309
1586549942.851,86.914,28.32,29.297,53.711,21.484
1586549942.855,-86.914,27.344,34.668,-17.09,-21.973
1586549942.859,-53.223,27.832,35.645,-29.785,18.555
1586549942.863,101.074,25.879,32.715,34.668,15.625
1586549942.867,125.488,25.391,35.645,67.383,22.949
1586549942.871,-52.246,26.367,38.574,-4.395,-2.441
1586549942.875,-75.195,24.902,36.133,-31.25,-28.809
1586549942.879,62.5,25.879,34.18,25.879,14.648
1586549942.883,152.344,27.344,34.18,78.125,54.199
1586549942.886,0.977,26.367,36.621,19.531,38.086
1586549942.89,-86.914,28.809,33.691,-41.992,-20.02
1586549942.894,18.066,31.25,29.297,-8.789,5.371
1586549942.898,151.367,30.273,28.809,60.547,11.23
1586549942.902,48.34,29.297,31.25,32.715,9.277
1586549942.906,-97.656,27.344,33.203,-38.574,67.871
1586549942.91,-33.691,26.367,29.785,-23.926,15.625
1586549942.914,113.77,29.785,32.227,54.199,-7.812
1586549942.918,99.609,31.25,35.156,62.012,-6.836
1586549942.922,-63.477,27.832,30.273,-18.066,-35.645
1586549942.926,-57.617,27.344,27.832,-36.621,-3.906
1586549942.929,79.102,26.367,28.809,37.109,23.926
1586549942.933,134.277,29.297,30.762,75.195,18.066
1586549942.937,-36.133,30.762,32.227,1.465,-18.555
1586549942.941,-84.473,28.809,30.762,-41.504,-27.832
1586549942.945,48.828,30.273,25.391,11.23,-81.055
1586549942.949,151.367,29.785,24.902,78.125,-32.715
1586549942.953,3.906,31.738,31.25,23.438,48.828
1586549942.957,-97.168,33.691,31.738,-39.551,12.207
1586549942.961,12.695,32.227,29.785,1.465,6.836
1586549942.965,160.645,29.785,30.273,75.195,2.93
1586549942.969,68.359,28.809,32.227,43.945,-21.484
1586549942.972,-91.797,27.344,33.691,-35.156,-0.488
1586549942.976,-31.738,26.855,33.203,-30.762,62.988
1586549942.98,123.535,31.738,29.785,49.805,55.664
1586549942.984,120.117,31.25,28.809,71.289,30.762
1586549942.988,-56.152,26.367,29.785,-10.742,39.551
1586549942.992,-59.082,30.273,28.32,-25.391,50.293
1586549942.996,82.031,34.668,29.297,40.527,93.75
1586549943,141.602,31.738,31.25,78.613,51.27
1586549943.004,-22.461,33.691,34.668,14.648,-7.812
1586549943.008,-79.102,33.691,33.203,-31.738,19.531
1586549943.011,41.504,29.785,29.785,9.766,-25.391
1586549943.015,156.738,30.762,32.715,73.73,-13.672
1586549943.019,32.715,33.691,34.668,34.668,-11.23
1586549943.023,-83.008,31.25,32.715,-30.762,-28.809
1586549943.027,-5.371,26.855,32.715,-6.348,6.348
1586549943.031,140.625,29.785,32.715,60.059,21.484
1586549943.035,83.984,32.715,29.297,43.457,28.809
1586549943.039,-81.055,29.785,31.25,-30.762,-4.395
1586549943.043,-44.434,28.809,30.273,-27.832,-3.906
1586549943.047,107.91,29.785,28.32,42.969,4.395
1586549943.051,127.441,27.344,31.25,66.895,0.977
1586549943.054,-62.988,27.344,32.227,-9.277,15.625
1586549943.058,-80.566,30.762,30.273,-38.086,16.602
1586549943.062,66.895,29.785,29.785,26.855,-19.531
1586549943.066,150.391,29.785,29.297,78.613,-33.691
1586549943.07,-9.277,31.25,31.738,16.602,-9.766
1586549943.074,-102.051,27.344,34.668,-34.668,-42.48
1586549943.078,13.672,28.32,34.668,5.371,-38.574
1586549943.082,142.578,30.762,35.645,72.266,11.719
1586549943.086,34.668,26.855,30.762,28.809,61.035
1586549943.09,-92.773,23.926,25.391,-40.527,55.664
1586549943.094,-27.832,25.879,29.785,-15.137,36.133
1586549943.097,122.07,27.344,30.762,59.082,54.199
1586549943.101,89.844,28.809,31.25,54.688,47.363
1586549943.105,-78.613,27.832,31.25,-25.879,16.113
1586549943.109,-46.875,24.902,31.738,-27.344,-27.832
1586549943.113,100.098,25.879,32.227,39.551,-4.883
1586549943.117,130.859,27.832,32.227,66.895,48.828
1586549943.121,-46.875,29.785,31.738,1.953,62.988
1586549943.125,-82.52,27.344,29.297,-27.344,19.043
1586549943.129,51.27,18.066,33.691,20.02,31.738
1586549943.133,156.738,22.461,31.25,70.801,95.215
1586549943.136,6.348,31.738,28.809,20.996,33.203
1586549943.14,-99.609,32.227,32.227,-38.086,-47.363
1586549943.144,6.836,31.738,30.273,-5.371,-15.625
1586549943.148,145.996,29.297,31.25,68.848,6.348
1586549943.152,56.641,27.832,33.203,47.852,-23.926
1586549943.156,-85.449,29.785,33.203,-23.438,-34.18
1586549943.16,-24.414,31.738,34.18,-17.09,-11.719
1586549943.164,117.188,31.738,31.738,47.852,-3.418
1586549943.168,99.121,33.203,30.762,62.012,1.953
1586549943.172,-73.73,34.18,33.203,-17.09,31.25
1586549943.176,-64.453,30.273,34.18,-32.715,25.879
1586549943.179,89.844,30.273,28.809,33.691,52.734
1586549943.183,145.508,31.25,28.32,72.754,78.613
1586549943.187,-32.715,30.762,30.762,9.766,57.617
1586549943.191,-85.938,34.18,29.297,-33.203,1.953
1586549943.195,49.316,34.18,29.297,17.09,2.93
1586549943.199,166.504,32.715,26.367,82.031,29.297
1586549943.203,33.203,35.156,29.785,35.645,54.199
1586549943.207,-82.031,32.227,31.25,-32.227,70.312
1586549943.211,0,28.32,28.809,-1.465,87.402
1586549943.215,139.16,27.344,30.273,70.801,78.613
1586549943.219,72.754,28.809,30.273,42.969,-1.465
1586549943.222,-82.031,30.762,32.227,-35.156,-43.945
1586549943.226,-37.598,31.25,30.762,-20.508,-45.41
1586549943.23,109.375,30.273,29.297,55.176,-6.348
1586549943.234,107.91,30.273,31.738,63.965,45.898
1586549943.238,-59.57,32.715,33.203,-19.531,44.434
1586549943.242,-60.059,29.297,32.227,-40.039,-9.766
1586549943.246,82.031,27.344,32.227,34.18,12.207
1586549943.25,156.738,33.691,32.715,86.914,5.371
1586549943.254,-7.812,36.621,35.645,20.508,-20.996
1586549943.258,-87.402,36.621,32.227,-30.273,35.156
1586549943.261,31.25,33.203,29.785,20.508,68.359
1586549943.265,156.738,32.227,29.785,83.496,38.086
1586549943.269,32.715,34.18,33.203,37.598,-0.488
1586549943.273,-86.426,34.668,34.668,-35.645,19.043
1586549943.277,0,30.273,34.18,-10.254,15.137
1586549943.281,143.555,24.902,34.18,69.824,11.23
1586549943.285,89.355,28.809,34.18,58.105,-17.578
1586549943.289,-71.777,29.297,35.156,-17.578,16.602
1586549943.293,-31.738,26.367,35.645,-27.344,35.645
1586549943.297,112.305,29.297,33.691,42.48,39.062
1586549943.301,129.395,30.762,32.227,71.777,53.711
1586549943.304,-50.781,29.785,35.156,-10.742,69.824
1586549943.308,-75.684,28.809,35.645,-34.18,33.203
1586549943.312,62.988,27.344,35.645,27.832,-3.418
1586549943.316,148.926,25.391,35.156,81.055,6.348
1586549943.32,-5.371,26.855,34.18,22.461,2.441
1586549943.324,-86.914,27.344,35.156,-30.273,12.695
1586549943.328,24.902,29.785,38.574,8.301,34.668
1586549943.332,158.691,29.297,37.598,75.195,98.145
1586549943.336,49.805,25.879,33.203,36.621,78.613
1586549943.34,-95.215,25.391,34.18,-37.109,21.973
1586549943.344,-28.809,19.531,37.109,-18.066,13.672
1586549943.347,120.605,20.02,36.621,57.129,27.832
1586549943.351,99.121,29.785,35.156,55.176,64.453
1586549943.355,-70.801,34.668,33.691,-24.902,54.199
1586549943.359,-58.594,33.203,33.203,-27.344,5.371
1586549943.363,87.891,33.203,31.738,43.457,10.254
1586549943.367,133.301,36.133,27.344,69.336,18.555
1586549943.371,-36.133,36.621,27.832,-11.719,27.832
1586549943.375,-80.078,34.18,28.32,-50.293,-3.418
1586549943.379,45.898,30.762,30.762,15.137,7.324
1586549943.383,149.414,28.809,33.691,77.148,31.25
1586549943.386,7.812,30.273,30.762,23.438,13.184
1586549943.39,-94.238,31.25,31.738,-28.809,31.25
1586549943.394,8.789,31.738,30.762,-3.418,16.113
1586549943.398,148.438,28.809,26.855,62.988,4.395
1586549943.402,57.129,26.367,32.227,41.504,-10.254
1586549943.406,-90.82,29.297,36.621,-34.668,13.672
1586549943.41,-25.391,31.738,35.645,-16.113,38.574
1586549943.414,131.348,30.762,35.156,60.547,-4.883
1586549943.418,109.863,33.203,38.086,76.66,6.348
1586549943.422,-79.102,34.18,38.086,-2.441,5.859
1586549943.426,-70.801,33.203,32.715,-27.832,11.719
1586549943.429,79.59,36.133,28.809,40.527,6.836
1586549943.433,139.16,37.598,32.227,78.613,9.277
1586549943.437,-26.367,36.621,34.18,9.277,44.922
1586549943.441,-71.289,36.621,33.203,-30.273,5.859
1586549943.445,56.152,33.203,35.645,18.555,-45.41
1586549943.449,155.273,31.738,38.574,79.59,4.395
1586549943.453,18.066,35.645,41.992,40.527,23.438
1586549943.457,-104.004,37.109,43.457,-16.113,0
1586549943.461,-19.043,36.133,43.945,4.883,-14.16
1586549943.465,140.137,34.668,42.48,76.66,7.812
1586549943.469,82.52,30.762,41.016,64.941,5.859
1586549943.472,-79.102,27.344,38.574,-17.09,-20.508
1586549943.476,-39.551,29.785,37.109,-14.648,-57.129
1586549943.48,110.84,34.18,36.621,53.223,-40.039
1586549943.484,132.324,35.156,34.18,65.918,-3.418
1586549943.488,-46.875,34.18,37.598,-7.812,-45.41
1586549943.492,-70.312,30.762,37.598,-30.762,10.742
1586549943.496,68.359,24.414,34.668,25.879,42.48
1586549943.5,144.043,29.785,34.668,69.824,27.344
1586549943.504,-12.695,32.227,35.156,9.766,-3.906
1586549943.508,-82.031,30.273,33.691,-32.715,6.836
1586549943.511,32.715,28.32,35.645,10.742,4.883
1586549943.515,155.273,26.367,38.574,78.125,-44.434
1586549943.519,37.598,25.879,37.598,40.527,37.109
1586549943.523,-96.68,29.785,36.133,-31.25,40.039
1586549943.527,-11.719,27.832,37.109,-13.672,-43.457
1586549943.531,133.789,19.043,33.203,54.688,-14.16
1586549943.535,82.031,19.531,28.32,51.758,19.043
1586549943.539,-83.984,22.949,32.227,-22.949,-2.441
1586549943.543,-50.781,24.902,34.18,-27.344,26.855
1586549943.547,96.68,25.879,33.691,43.457,0.488
1586549943.551,122.559,24.902,35.156,71.777,32.227
1586549943.554,-49.316,25.879,35.156,-3.418,46.387
1586549943.558,-70.312,27.832,34.668,-32.715,-9.766
1586549943.562,75.195,31.738,32.715,31.25,-6.348
1586549943.566,165.527,29.297,34.18,88.867,7.324
1586549943.57,2.93,26.367,37.598,21.484,-16.602
1586549943.574,-89.355,25.879,34.668,-38.086,-8.789
1586549943.578,14.648,24.414,29.785,2.441,-23.438
1586549943.582,141.113,27.344,30.273,72.754,-38.574
1586549943.586,45.41,27.344,34.18,42.48,-15.137
1586549943.59,-93.262,26.855,33.203,-26.855,49.316
1586549943.594,-29.297,27.832,35.156,-7.324,97.656
1586549943.597,123.047,26.855,36.133,62.5,76.172
1586549943.601,98.633,28.32,36.133,62.5,34.18
1586549943.605,-80.078,27.344,37.598,-10.742,-24.414
1586549943.609,-68.848,27.832,35.645,-29.297,-22.949
1586549943.613,80.566,29.785,34.18,34.668,74.707
1586549943.617,131.836,32.227,37.598,87.402,69.336
1586549943.621,-34.668,31.738,38.086,17.09,-16.113
1586549943.625,-82.52,29.297,34.668,-36.133,15.137
1586549943.629,44.922,29.297,33.691,11.719,68.848
1586549943.633,155.762,30.273,35.156,75.195,47.852
1586549943.636,23.438,29.785,36.621,38.086,43.945
1586549943.64,-84.961,28.809,37.109,-20.996,56.641
1586549943.644,4.883,28.32,38.086,6.348,48.828
1586549943.648,148.438,29.297,34.668,70.801,54.688
1586549943.652,70.801,29.297,34.18,44.922,-6.836
1586549943.656,-83.008,29.785,39.551,-23.926,-41.504
1586549943.66,-20.996,37.109,38.086,-14.648,-58.105
1586549943.664,129.395,36.133,34.668,56.152,-77.637
1586549943.668,122.559,32.227,36.133,62.5,-1.953
1586549943.672,-51.758,36.621,36.621,-17.578,15.137
1586549943.676,-51.758,37.598,33.691,-31.738,4.395
1586549943.679,91.797,35.156,33.203,33.691,16.602
1586549943.683,154.297,35.156,33.691,79.59,-15.625
1586549943.687,-12.207,37.598,33.691,18.066,27.344
1586549943.691,-76.172,38.086,33.691,-28.32,17.09
1586549943.695,44.922,37.109,33.691,17.09,-39.551
1586549943.699,164.062,38.574,33.203,80.078,-0.488
1586549943.703,32.227,39.062,34.18,33.203,35.645
1586549943.707,-81.543,41.992,34.18,-34.18,19.043
1586549943.711,-3.906,41.992,35.645,-9.766,-30.273
1586549943.715,137.695,36.621,35.156,62.5,-29.297
1586549943.719,82.031,36.621,35.156,49.316,18.066
1586549943.722,-91.797,36.133,34.18,-30.273,-5.859
1586549943.726,-49.316,34.18,33.203,-28.32,-38.574
1586549943.73,100.098,36.133,36.133,47.852,-8.789
1586549943.734,117.188,37.598,36.621,67.871,13.672
1586549943.738,-58.594,38.086,37.598,-11.23,47.852
1586549943.742,-76.172,36.621,34.668,-39.551,78.613
1586549943.746,64.941,36.621,29.297,10.254,53.711
1586549943.75,150.391,36.133,30.273,62.5,59.57
1586549943.754,-11.719,33.203,33.691,14.648,55.664
1586549943.758,-109.863,30.273,34.18,-36.133,65.43
1586549943.761,14.648,28.32,33.203,4.883,89.844
1586549943.765,155.762,30.273,32.227,76.66,88.867
1586549943.769,47.852,32.227,33.203,32.715,21.484
1586549943.773,-84.473,32.715,32.715,-39.062,-13.672
1586549943.777,-15.625,33.203,27.832,-21.973,-2.441
1586549943.781,134.277,29.785,25.879,52.246,44.434
1586549943.785,100.586,30.762,28.32,58.594,78.125
1586549943.789,-67.383,32.227,29.785,-22.949,-32.227
1586549943.793,-48.828,30.273,31.25,-25.879,-62.5
1586549943.797,95.215,32.715,29.297,44.434,15.625
1586549943.801,139.648,35.156,30.762,67.871,-33.203
1586549943.804,-32.227,31.738,35.645,-1.953,-83.496
1586549943.808,-70.801,28.32,35.156,-25.391,-41.992
1586549943.812,61.035,35.156,38.574,28.809,8.789
1586549943.816,162.598,40.527,37.109,74.707,52.246
1586549943.82,13.184,36.621,32.227,20.508,43.945
1586549943.824,-83.008,35.156,36.133,-28.809,5.859
1586549943.828,18.066,36.133,34.18,4.395,12.695
1586549943.832,145.996,37.109,29.297,71.777,13.672
1586549943.836,62.012,34.668,32.227,48.828,-6.348
1586549943.84,-79.59,32.227,34.668,-28.32,15.625
1586549943.844,-20.508,31.738,31.738,-17.09,9.277
1586549943.847,129.883,31.25,33.691,63.965,-3.418
1586549943.851,109.863,33.691,36.621,69.336,44.922
1586549943.855,-68.359,37.109,34.18,-19.043,37.109
1586549943.859,-52.246,38.574,36.133,-34.668,-9.766
1586549943.863,89.355,40.039,37.109,24.902,-36.133
1586549943.867,131.348,38.086,34.668,65.43,7.812
1586549943.871,-37.598,33.691,36.621,7.324,-4.395
1586549943.875,-88.867,34.18,34.18,-35.645,19.043
1586549943.879,37.109,36.133,33.203,5.371,42.48
1586549943.883,154.785,35.156,35.645,69.336,63.477
1586549943.886,20.996,35.645,39.062,34.18,92.285
1586549943.89,-97.168,34.18,40.527,-29.297,26.855
1586549943.894,-2.441,35.156,36.621,-4.395,-16.113
1586549943.898,144.043,32.715,34.18,72.754,-3.418
1586549943.902,72.266,32.715,33.203,53.711,28.809
1586549943.906,-86.914,35.156,35.645,-20.508,8.789
1586549943.91,-41.504,30.273,37.109,-22.949,10.254
1586549943.914,115.234,33.203,33.203,39.062,74.707
1586549943.918,126.465,37.598,32.715,59.57,18.555
1586549943.922,-52.246,37.109,35.645,-14.16,-34.668
1586549943.926,-68.359,33.203,36.133,-31.25,3.418
1586549943.929,74.219,30.273,33.203,30.762,25.391
1586549943.933,159.668,36.621,33.203,78.613,75.195
1586549943.937,-6.836,40.039,35.156,13.184,86.426
1586549943.941,-95.703,36.133,32.715,-39.551,45.41
1586549943.945,32.715,34.668,32.715,7.324,46.387
1586549943.949,157.715,36.133,31.738,71.289,33.203
1586549943.953,23.926,35.645,34.668,34.668,-22.949
1586549943.957,-96.191,34.18,36.133,-32.227,-27.344
1586549943.961,-18.555,31.738,35.156,-15.137,-5.859
1586549943.965,130.371,28.809,36.621,57.129,-32.715
1586549943.969,85.449,29.297,34.18,53.223,3.418
1586549943.972,-82.031,26.855,35.156,-22.461,46.387
1586549943.976,-38.574,23.926,37.109,-23.926,-11.23
1586549943.98,108.887,29.785,34.668,44.922,-34.18
1586549943.984,126.953,30.762,38.086,68.848,-42.969
1586549943.988,-39.551,29.785,41.504,-9.277,4.395
1586549943.992,-62.988,30.273,39.551,-44.434,16.113
1586549943.996,76.172,29.785,34.668,19.043,6.348
1586549944,165.527,27.832,35.645,75.195,-24.902
1586549944.004,4.883,27.832,39.551,19.043,-72.754
1586549944.008,-86.426,27.832,41.504,-31.25,8.301
1586549944.011,24.414,30.273,42.48,8.301,42.969
1586549944.015,157.227,31.738,41.016,76.172,43.457
1586549944.019,52.246,31.738,39.062,38.086,43.457
1586549944.023,-82.031,32.227,39.551,-34.668,43.457
1586549944.027,-19.043,31.738,39.062,-19.531,39.551
1586549944.031,129.883,26.855,36.133,58.594,16.602
1586549944.035,104.98,22.949,35.645,70.312,19.043
1586549944.039,-66.406,26.367,35.645,-12.207,-16.602
1586549944.043,-45.898,30.273,32.715,-32.227,-32.227
1586549944.047,102.539,31.25,31.25,30.762,9.766
1586549944.051,145.996,30.762,33.203,64.941,-11.23
1586549944.054,-29.297,28.809,36.133,0.488,-25.391
1586549944.058,-75.684,26.855,37.109,-37.598,36.133
1586549944.062,52.246,27.344,34.18,11.23,50.293
1586549944.066,152.344,27.832,33.691,68.848,25.879
1586549944.07,0,26.367,34.18,16.113,-14.16
1586549944.074,-105.469,30.273,34.668,-38.086,-41.992
1586549944.078,-12.207,31.25,34.18,-2.441,7.324
1586549944.082,134.277,29.785,32.715,67.871,109.375
1586549944.086,63.477,33.691,35.156,42.48,124.512
1586549944.09,-89.844,32.227,36.621,-37.598,61.523
1586549944.094,-32.715,31.25,37.109,-19.043,-9.766
1586549944.097,120.605,33.691,33.691,50.293,-16.113
1586549944.101,114.746,33.691,33.691,56.152,8.301
1586549944.105,-62.988,35.645,37.598,-9.766,16.113
1586549944.109,-74.219,32.227,35.156,-30.273,37.109
1586549944.113,69.336,30.273,31.738,30.762,23.438
1586549944.117,143.066,32.227,35.645,69.824,-8.301
1586549944.121,-24.414,34.668,36.621,6.348,-22.949
1586549944.125,-79.59,37.109,33.203,-35.645,-41.992
1586549944.129,46.875,36.133,33.691,8.301,-16.602
1586549944.133,161.621,35.156,33.691,77.148,50.781
1586549944.136,31.738,37.598,33.691,40.527,9.766
1586549944.14,-89.844,34.18,37.598,-25.879,-20.996
1586549944.144,-0.488,32.227,37.109,-0.977,20.508
1586549944.148,148.926,34.18,36.621,71.777,19.531
1586549944.152,85.449,35.645,40.039,57.129,-4.883
1586549944.156,-78.613,27.344,40.039,-20.996,-58.594
1586549944.16,-36.133,25.879,38.086,-16.602,-30.762
1586549944.164,103.516,34.18,36.621,50.781,14.648
1586549944.168,117.676,35.645,36.621,73.242,29.297
1586549944.172,-51.27,38.086,39.062,0.977,6.836
1586549944.176,-73.242,37.598,36.621,-36.621,20.508
1586549944.179,69.336,37.598,34.18,18.066,60.059
1586549944.183,151.855,35.156,34.18,66.406,39.551
1586549944.187,-10.742,33.203,34.668,6.348,37.598
1586549944.191,-79.59,31.25,33.691,-35.156,42.969
1586549944.195,28.809,30.762,37.598,6.836,63.965
1586549944.199,149.414,33.203,39.551,75.684,13.184
1586549944.203,43.945,33.203,37.109,37.109,17.578
1586549944.207,-89.355,29.785,38.574,-35.645,95.703
1586549944.211,-9.766,32.715,40.527,-15.625,62.5
1586549944.215,135.254,34.18,36.621,59.082,12.207
1586549944.219,85.938,31.25,36.133,56.641,-14.648
1586549944.222,-82.52,29.785,38.086,-24.902,33.203
1586549944.226,-52.246,31.25,38.086,-33.691,28.32
1586549944.23,99.609,33.691,35.156,31.25,11.719
1586549944.234,125.977,35.156,35.645,66.895,75.195
1586549944.238,-50.293,34.668,36.621,-5.371,74.219
1586549944.242,-71.289,35.156,34.18,-41.016,41.016
1586549944.246,61.035,35.645,35.645,24.414,30.762
1586549944.25,146.973,33.691,35.645,82.52,30.762
1586549944.254,-2.93,33.203,38.574,20.02,-18.066
1586549944.258,-106.445,34.18,38.086,-41.504,-71.289
1586549944.261,-7.324,32.715,32.715,-1.465,13.184
1586549944.265,149.902,29.785,34.668,79.59,77.148
1586549944.269,62.012,33.203,35.645,51.758,48.828
1586549944.273,-86.426,34.668,33.691,-29.785,55.176
1586549944.277,-17.578,27.344,36.133,-12.695,42.969
1586549944.281,138.184,26.855,36.133,60.547,21.484
1586549944.285,120.605,33.691,33.691,66.406,47.852
1586549944.289,-55.176,36.621,36.621,-7.812,50.293
1586549944.293,-45.41,35.156,38.086,-20.02,-27.832
1586549944.297,103.516,34.668,36.621,52.246,-9.766
1586549944.301,145.996,35.156,36.621,83.496,65.43
1586549944.304,-29.297,34.18,38.574,9.277,16.113
1586549944.308,-72.266,35.156,38.086,-22.461,19.531
1586549944.312,54.199,36.133,35.156,26.367,39.062
1586549944.316,159.18,33.691,36.133,85.449,17.578
1586549944.32,13.184,31.25,38.086,41.016,62.988
1586549944.324,-88.867,35.156,39.062,-18.555,78.125
1586549944.328,18.555,35.645,38.574,9.277,42.48
1586549944.332,147.461,28.32,33.203,81.543,9.766
1586549944.336,63.477,25.391,33.691,68.848,-11.719
1586549944.34,-85.449,27.832,37.109,-14.16,-6.348
1586549944.344,-29.785,28.32,35.156,-13.672,-35.156
1586549944.347,121.582,30.762,32.227,55.176,-45.41
1586549944.351,117.676,32.715,32.715,68.848,8.301
1586549944.355,-56.152,33.691,35.645,-2.93,-8.789
1586549944.359,-61.035,35.156,34.668,-31.738,-22.949
1586549944.363,76.172,35.645,34.18,27.344,43.457
1586549944.367,141.602,35.156,34.668,75.195,68.359
1586549944.371,-20.996,37.109,35.156,4.883,14.16
1586549944.375,-81.055,36.621,31.25,-41.504,34.668
1586549944.379,41.992,37.598,27.344,4.883,32.715
1586549944.383,165.039,41.016,24.902,81.055,-16.602
1586549944.386,39.551,40.527,32.715,43.945,25.391
1586549944.39,-97.168,38.086,40.039,-33.203,88.867
1586549944.394,-27.344,40.039,38.086,-12.207,50.293
1586549944.398,119.141,38.574,37.598,59.57,13.184
1586549944.402,72.266,39.551,39.062,53.223,22.949
1586549944.406,-86.914,43.457,38.574,-24.414,28.32
1586549944.41,-45.898,45.41,38.086,-23.926,16.602
1586549944.414,109.863,40.527,39.062,52.246,-62.988
1586549944.418,123.535,42.48,34.668,69.824,-54.688
1586549944.422,-47.363,49.316,33.203,-10.254,14.648
1586549944.426,-58.594,46.875,35.156,-30.762,31.25
1586549944.429,78.125,42.969,35.156,31.25,9.277
1586549944.433,156.738,38.574,35.645,81.055,-18.066
1586549944.437,-3.906,42.969,38.086,24.414,31.25
1586549944.441,-74.707,51.27,36.133,-28.809,19.531
1586549944.445,41.504,47.852,30.273,7.812,-7.324
1586549944.449,160.645,40.527,31.25,78.125,-1.465
1586549944.453,49.316,42.969,35.156,41.992,-11.23
1586549944.457,-88.379,44.434,34.18,-33.203,-13.672
1586549944.461,-17.09,39.551,34.668,-11.719,19.043
1586549944.465,131.836,40.527,35.156,63.965,27.832
1586549944.469,93.75,42.48,34.668,62.988,15.625
1586549944.472,-76.66,42.48,35.156,-16.113,17.09
1586549944.476,-55.176,41.504,32.715,-30.762,22.461
1586549944.48,84.961,36.621,31.738,34.668,0.488
1586549944.484,131.836,35.156,30.273,73.242,-2.441
1586549944.488,-33.203,37.109,31.738,0,18.555
1586549944.492,-75.684,34.668,34.18,-40.039,6.348
1586549944.496,62.5,38.086,36.621,19.043,-32.227
1586549944.5,161.621,38.086,36.621,73.73,-23.438
1586549944.504,8.789,33.203,36.133,17.578,-5.371
1586549944.508,-92.285,35.156,36.133,-39.551,-44.922
1586549944.511,13.184,34.668,34.668,-7.812,46.875
1586549944.515,157.715,28.809,34.668,68.359,61.035
1586549944.519,68.359,30.762,36.133,45.898,-36.133
1586549944.523,-89.355,35.645,34.668,-33.203,11.719
1586549944.527,-36.621,30.762,33.203,-24.414,60.547
1586549944.531,124.512,25.879,31.738,55.176,-9.277
1586549944.535,109.863,28.809,31.25,64.941,-17.578
1586549944.539,-68.848,30.762,34.18,-20.508,6.348
1586549944.543,-61.523,31.25,34.18,-34.668,0
1586549944.547,71.777,32.227,32.227,29.297,6.836
1586549944.551,134.766,26.367,30.273,64.453,8.789
1586549944.554,-37.109,23.438,33.203,9.277,-29.785
1586549944.558,-96.68,30.273,32.715,-31.738,20.996
1586549944.562,47.852,35.156,30.273,7.324,24.902
1586549944.566,152.344,35.645,32.227,66.895,-15.625
1586549944.57,14.648,32.227,35.645,28.809,-8.301
1586549944.574,-89.355,30.273,39.062,-26.367,19.531
1586549944.578,-5.859,32.715,37.109,-4.395,14.16
1586549944.582,147.949,34.18,37.109,72.754,4.395
1586549944.586,83.984,31.738,38.574,61.035,35.645
1586549944.59,-75.195,26.855,36.621,-23.926,-8.301
1586549944.594,-31.25,27.832,35.156,-26.855,-88.379
1586549944.597,117.188,26.367,35.156,49.805,-17.09
1586549944.601,125.977,28.32,35.156,68.848,8.789
1586549944.605,-53.711,29.785,37.109,-12.695,-34.668
1586549944.609,-63.965,28.32,38.574,-33.691,70.801
1586549944.613,78.613,30.273,33.691,29.297,69.824
1586549944.617,149.414,30.762,33.203,71.289,-0.488
1586549944.621,-13.184,30.762,39.062,9.766,-20.02
1586549944.625,-83.984,29.297,39.062,-26.367,14.16
1586549944.629,40.527,31.25,35.645,10.742,45.41
1586549944.633,163.574,30.273,37.598,72.266,59.57
1586549944.636,45.41,28.809,41.504,37.598,78.125
1586549944.64,-81.543,29.297,42.969,-33.691,16.602
1586549944.644,-4.395,29.785,38.574,-12.207,-9.766
1586549944.648,150.879,26.855,34.18,62.5,45.41
1586549944.652,101.074,24.902,33.691,54.688,89.844
1586549944.656,-70.801,32.715,36.133,-19.531,68.359
1586549944.66,-41.504,33.691,35.645,-20.508,34.668
1586549944.664,97.168,27.832,33.691,47.852,60.547
1586549944.668,120.117,26.367,32.227,75.684,100.586
1586549944.672,-48.34,31.738,30.273,7.812,63.477
1586549944.676,-73.242,34.668,34.18,-21.973,-5.371
1586549944.679,68.848,33.203,37.109,23.926,-2.441
1586549944.683,163.574,31.25,39.062,78.125,1.953
1586549944.687,11.23,34.668,41.016,20.508,19.043
1586549944.691,-87.891,32.715,39.062,-34.668,5.859
1586549944.695,12.695,27.344,30.762,5.371,-37.109
1586549944.699,154.785,29.785,31.25,77.148,-46.875
1586549944.703,58.105,31.738,40.039,51.758,5.859
1586549944.707,-83.008,29.785,38.574,-33.203,70.312
1586549944.711,-20.508,27.344,40.039,-18.066,57.129
1586549944.715,133.789,28.32,34.668,62.5,29.785
1586549944.719,110.84,29.785,32.227,67.871,-13.672
1586549944.722,-63.477,26.855,37.598,-1.465,8.301
1586549944.726,-43.457,25.879,34.18,-18.555,-18.066
1586549944.73,101.074,26.855,36.621,40.527,-63.477
1586549944.734,144.531,28.809,39.062,81.055,-43.945
1586549944.738,-27.832,27.344,40.527,8.301,-61.523
1586549944.742,-68.359,26.855,40.527,-30.273,-8.789
1586549944.746,65.918,27.832,38.574,33.203,38.086
1586549944.75,166.992,32.227,36.133,87.402,24.902
1586549944.754,25.879,35.645,36.621,33.691,11.719
1586549944.758,-74.219,32.715,42.969,-25.879,-12.207
1586549944.761,22.949,30.273,44.922,4.395,-0.488
1586549944.765,155.273,31.738,41.016,84.961,52.246
1586549944.769,66.406,32.227,40.527,63.477,60.547
1586549944.773,-82.031,29.785,41.504,-27.344,28.32
1586549944.777,-20.508,29.785,38.086,-22.461,12.207
1586549944.781,128.418,28.32,35.645,54.688,-14.16
1586549944.785,114.258,28.809,33.203,70.312,18.066
1586549944.789,-70.801,33.691,34.18,-7.812,29.785
1586549944.793,-71.777,33.203,35.156,-20.996,42.969
1586549944.797,74.219,29.785,34.668,42.48,137.207
1586549944.801,147.461,32.715,34.668,77.148,113.281
1586549944.804,-12.207,34.18,39.062,17.09,52.734
1586549944.808,-75.195,34.668,39.062,-27.832,41.992
1586549944.812,51.27,38.086,36.133,13.184,89.844
1586549944.816,175.293,36.133,28.809,75.684,113.281
1586549944.82,37.109,31.25,27.344,32.227,56.641
1586549944.824,-95.703,24.902,36.133,-30.273,2.441
1586549944.828,0,25.879,35.645,-2.441,50.293
1586549944.832,155.273,30.273,35.156,74.707,21.484
1586549944.836,89.844,31.738,37.109,58.594,-62.988
1586549944.84,-83.008,30.273,35.156,-25.391,-37.598
1586549944.844,-53.223,25.391,35.645,-19.531,28.32
1586549944.847,100.098,25.879,37.598,55.664,40.039
1586549944.851,117.676,28.809,36.621,73.242,13.184
1586549944.855,-60.547,27.344,40.039,-9.766,11.719
1586549944.859,-73.242,29.297,41.504,-36.133,27.832
1586549944.863,70.312,31.25,39.062,22.461,-7.324
1586549944.867,162.598,27.344,39.062,70.801,-34.668
1586549944.871,3.418,29.785,36.621,14.16,0.977
1586549944.875,-77.637,32.715,37.109,-34.668,38.574
1586549944.879,24.902,29.785,40.527,7.324,21.484
1586549944.883,154.297,31.738,40.039,74.219,0
1586549944.886,48.34,35.156,38.086,40.527,20.02
1586549944.89,-98.145,35.645,38.086,-29.785,46.875
1586549944.894,-22.949,31.738,38.086,-15.137,28.32
1586549944.898,129.395,30.273,36.621,62.012,48.828
1586549944.902,82.52,31.25,35.645,67.871,52.734
1586549944.906,-91.797,32.227,38.574,-17.578,-36.133
1586549944.91,-58.594,32.227,38.574,-30.273,-54.199
1586549944.914,96.191,30.762,36.621,40.527,-39.062
1586549944.918,125.488,31.25,37.109,67.871,-65.918
1586549944.922,-50.293,31.25,38.086,-8.301,-60.059
1586549944.926,-73.242,32.227,37.109,-40.527,-0.488
1586549944.929,52.734,32.715,36.621,15.625,10.742
1586549944.933,149.902,33.691,35.645,79.59,-12.207
1586549944.937,20.996,39.062,40.039,29.297,-50.293
1586549944.941,-84.473,36.621,40.527,-41.504,-18.555
1586549944.945,3.418,25.879,34.668,-2.93,2.93
1586549944.949,145.508,26.855,32.227,77.148,21.484
1586549944.953,56.152,35.645,32.227,53.223,18.066
1586549944.957,-94.727,38.086,36.621,-24.414,-33.203
1586549944.961,-35.645,34.668,32.227,-24.902,39.551
1586549944.965,125,36.133,30.762,54.688,15.137
1586549944.969,106.934,36.133,34.668,66.895,-40.039
1586549944.972,-73.73,30.762,30.273,-7.324,-8.301
1586549944.976,-56.641,31.25,27.344,-19.531,27.344
1586549944.98,94.727,35.156,31.738,41.016,45.41
1586549944.984,144.531,34.18,35.645,74.219,47.363
1586549944.988,-27.832,35.156,37.109,-0.977,-5.859
1586549944.992,-82.031,34.668,38.574,-35.645,30.762
1586549944.996,45.898,33.691,35.645,28.32,62.5
1586549945,160.156,34.668,35.156,86.914,-9.277
1586549945.004,25.879,36.133,37.109,27.832,0.488
1586549945.008,-80.566,37.109,34.668,-33.203,3.906
1586549945.011,9.766,36.621,34.18,0.488,-2.93
1586549945.015,151.367,34.18,31.738,82.031,16.113
1586549945.019,81.055,34.668,34.18,68.848,33.203
1586549945.023,-83.008,34.668,30.762,-23.438,60.059
1586549945.027,-41.016,31.25,24.414,-26.367,23.438
1586549945.031,101.562,31.738,28.809,39.551,3.418
1586549945.035,101.562,34.668,34.18,54.199,25.391
1586549945.039,-62.988,34.18,33.203,-17.578,-6.348
1586549945.043,-69.336,33.203,33.691,-36.133,41.016
1586549945.047,77.637,35.156,36.133,31.25,46.387
1586549945.051,152.344,36.133,38.086,74.707,24.414
1586549945.054,-19.043,37.109,38.086,12.695,29.297
1586549945.058,-87.891,36.133,32.227,-41.016,-26.855
1586549945.062,29.785,31.738,31.738,5.371,-8.789
1586549945.066,146.484,32.227,35.156,71.777,1.953
1586549945.07,32.715,36.133,39.062,29.297,25.879
1586549945.074,-90.82,37.109,34.18,-37.109,13.672
1586549945.078,-16.113,35.645,29.785,-25.391,26.367
1586549945.082,135.254,35.645,31.738,50.781,63.477
1586549945.086,84.961,35.645,40.039,51.758,20.996
1586549945.09,-88.379,35.645,42.969,-22.461,25.879
1586549945.094,-57.129,34.668,37.109,-23.438,38.086
1586549945.097,101.074,34.18,38.574,44.922,59.082
1586549945.101,126.465,38.574,38.086,67.871,28.809
1586549945.105,-56.152,40.039,37.598,-12.695,15.625
1586549945.109,-74.219,35.645,36.133,-42.48,-2.441
1586549945.113,62.012,30.273,31.25,18.555,-1.953
1586549945.117,142.578,31.25,34.18,74.707,41.992
1586549945.121,-10.742,32.227,34.18,21.484,10.254
1586549945.125,-99.121,30.762,26.855,-36.621,21.484
1586549945.129,22.461,37.109,28.809,-0.977,12.695
1586549945.133,161.133,38.086,29.785,65.918,6.348
1586549945.136,44.922,32.715,30.762,36.621,26.367
1586549945.14,-95.215,31.738,33.691,-29.785,-18.066
1586549945.144,-20.508,35.156,30.762,-12.207,-8.301
1586549945.148,140.137,36.621,28.809,60.547,19.531
1586549945.152,100.098,35.156,28.809,60.059,13.672
1586549945.156,-78.613,34.18,34.18,-16.113,30.273
1586549945.16,-50.293,31.738,39.551,-21.484,29.785
1586549945.164,102.051,34.668,36.133,50.293,29.297
1586549945.168,146.484,38.086,35.156,88.867,52.246
1586549945.172,-29.297,37.598,38.574,11.23,79.59
1586549945.176,-68.848,34.18,40.039,-33.691,39.062
1586549945.179,68.848,35.645,36.621,26.855,41.504
1586549945.183,170.41,36.133,35.156,85.938,33.203
1586549945.187,20.996,34.18,40.527,35.156,-8.789
1586549945.191,-75.684,36.133,39.551,-26.855,14.16
1586549945.195,20.996,33.691,39.062,6.836,24.902
1586549945.199,150.391,32.227,38.086,80.566,-25.391
1586549945.203,58.105,33.203,33.203,38.086,-33.203
1586549945.207,-89.844,31.738,32.227,-37.109,2.441
1586549945.211,-34.668,31.738,36.133,-16.602,40.527
1586549945.215,112.793,32.715,35.156,53.711,50.293
1586549945.219,100.586,29.297,36.133,67.383,16.113
1586549945.222,-72.266,31.25,41.992,1.465,-11.719
1586549945.226,-64.453,32.715,40.039,-21.484,-5.371
1586549945.23,76.66,29.297,36.133,34.18,4.883
1586549945.234,141.602,32.227,31.738,76.172,69.824
1586549945.238,-25.879,36.621,33.203,6.348,48.34
1586549945.242,-86.914,34.18,37.109,-38.086,43.457
1586549945.246,39.551,31.738,34.18,10.742,66.895
1586549945.25,153.32,33.203,33.203,73.73,21.973
1586549945.254,20.508,32.715,35.645,33.203,-3.906
1586549945.258,-92.285,31.25,35.645,-32.227,0.488
1586549945.261,3.418,33.203,33.691,-8.789,16.113
1586549945.265,143.555,33.203,33.203,62.5,18.555
1586549945.269,71.289,32.715,34.668,51.758,-31.25
1586549945.273,-93.75,33.691,35.156,-21.484,-19.043
1586549945.277,-52.246,33.691,35.645,-23.438,-7.812
1586549945.281,105.469,33.203,36.621,43.945,-12.207
1586549945.285,113.77,37.109,38.086,67.383,21.484
1586549945.289,-64.941,39.062,39.551,0,-4.883
1586549945.293,-71.777,36.133,40.039,-23.438,-49.805
1586549945.297,72.266,33.203,37.598,31.25,-19.531
1586549945.301,153.809,33.203,35.645,77.148,7.324
1586549945.304,-11.719,34.668,36.621,9.766,-19.043
1586549945.308,-85.449,34.668,36.621,-38.574,-35.156
1586549945.312,20.508,34.668,38.574,9.766,-16.602
1586549945.316,147.949,36.133,39.551,77.148,0.977
1586549945.32,43.945,36.621,38.574,40.527,-0.977
1586549945.324,-93.75,36.621,40.527,-25.391,37.598
1586549945.328,-11.719,32.715,39.551,-3.418,13.672
1586549945.332,134.277,30.273,38.574,62.012,3.418
1586549945.336,78.125,33.203,37.109,59.57,11.23
1586549945.34,-78.613,34.668,32.715,-14.16,-16.602
1586549945.344,-50.781,32.715,33.203,-30.762,-13.184
1586549945.347,97.168,31.25,35.156,41.504,23.438
1586549945.351,127.441,31.738,37.598,68.359,28.809
1586549945.355,-45.41,28.32,37.598,-13.672,-26.367
1586549945.359,-78.613,26.367,32.227,-39.551,-35.156
1586549945.363,60.547,29.785,28.32,21.973,-63.965
1586549945.367,158.691,33.691,32.227,77.148,-18.066
1586549945.371,-1.465,35.645,39.062,24.902,38.574
1586549945.375,-87.891,35.156,39.062,-30.273,48.828
1586549945.379,17.578,31.25,33.691,3.418,66.895
1586549945.383,156.738,28.32,28.32,75.684,51.27
1586549945.386,61.523,34.18,31.738,46.387,45.41
1586549945.39,-81.543,35.156,33.691,-29.297,27.344
1586549945.394,-9.277,32.227,31.738,-10.254,-16.113
1586549945.398,141.602,38.086,34.668,65.43,9.277
1586549945.402,120.117,39.062,31.25,62.012,81.055
1586549945.406,-50.781,35.645,31.738,-17.09,97.168
1586549945.41,-41.016,34.668,34.668,-29.785,45.898
1586549945.414,103.027,31.738,31.738,38.574,39.062
1586549945.418,152.344,34.668,31.738,81.055,24.414
1586549945.422,-24.414,33.691,34.18,10.254,13.672
1586549945.426,-72.266,28.809,34.18,-31.738,16.113
1586549945.429,68.848,33.203,34.668,18.555,66.895
1586549945.433,171.387,35.156,35.645,76.172,76.172
1586549945.437,26.855,34.668,34.668,31.25,-0.488
1586549945.441,-75.684,31.738,34.668,-26.367,-30.762
1586549945.445,14.648,32.227,33.691,-1.465,0.488
1586549945.449,161.621,35.645,32.227,67.871,8.301
1586549945.453,82.52,35.645,35.645,49.805,-17.09
1586549945.457,-69.336,38.574,36.133,-20.508,-16.602
1586549945.461,-16.602,39.062,34.18,-10.254,6.836
1586549945.465,122.559,37.598,33.203,64.941,-8.301
1586549945.469,116.699,39.551,31.25,79.102,39.062
1586549945.472,-51.27,37.109,32.227,-4.395,46.875
1586549945.476,-44.922,34.18,34.18,-26.367,16.113
1586549945.48,95.215,35.645,35.156,37.598,13.672
1586549945.484,151.367,37.109,33.691,83.496,-6.348
1586549945.488,-13.672,38.086,32.227,13.672,19.531
1586549945.492,-73.242,40.039,34.18,-31.738,-10.742
1586549945.496,50.293,41.504,32.227,17.578,-11.23
1586549945.5,162.109,42.969,29.785,82.52,76.66
1586549945.504,30.762,41.504,32.227,40.039,101.562
1586549945.508,-86.914,39.062,33.691,-25.391,67.383
1586549945.511,-0.488,35.645,33.203,-0.488,36.133
1586549945.515,144.043,37.109,33.691,72.266,47.363
1586549945.519,82.52,40.527,33.203,58.594,58.594
1586549945.523,-77.148,40.039,33.203,-26.855,6.836
1586549945.527,-27.832,39.551,32.715,-25.879,-22.461
1586549945.531,114.258,40.527,30.762,47.852,-29.297
1586549945.535,117.676,39.551,36.133,73.73,-17.09
1586549945.539,-51.758,38.574,39.062,-0.977,0.977
1586549945.543,-59.57,37.109,35.156,-34.668,6.348
1586549945.547,75.195,37.598,37.109,32.227,19.531
1586549945.551,148.438,35.156,39.551,91.797,13.672
1586549945.554,-15.137,33.203,37.598,29.785,56.152
1586549945.558,-89.355,35.645,37.109,-24.414,19.531
1586549945.562,28.809,34.18,36.621,7.812,-60.059
1586549945.566,144.531,34.18,36.133,66.406,-37.598
1586549945.57,32.715,37.598,38.574,35.156,2.441
1586549945.574,-96.191,36.133,41.992,-30.762,12.207
1586549945.578,-21.484,31.738,39.551,-16.113,-2.441
1586549945.582,132.324,33.203,35.156,64.941,-6.348
1586549945.586,93.262,34.18,36.133,68.848,-12.207
1586549945.59,-74.707,32.227,37.598,-8.789,8.789
1586549945.594,-41.992,31.25,36.133,-6.348,34.18
1586549945.597,111.328,33.203,34.668,50.781,18.066
1586549945.601,138.184,33.203,36.621,64.453,-2.93
1586549945.605,-41.992,33.691,41.504,3.418,-21.973
1586549945.609,-81.543,32.227,44.434,-23.438,-17.578
1586549945.613,53.711,31.738,42.48,21.973,-22.949
1586549945.617,154.785,34.668,41.016,85.449,14.16
1586549945.621,5.859,33.203,39.551,36.621,64.941
1586549945.625,-87.402,32.227,38.574,-28.809,3.906
1586549945.629,12.695,31.25,40.527,5.371,-13.184
1586549945.633,150.879,31.738,40.039,79.59,47.363
1586549945.636,66.895,32.227,36.133,56.152,10.254
1586549945.64,-77.637,34.668,39.551,-19.043,2.93
1586549945.644,-17.09,30.762,41.016,-9.277,22.949
1586549945.648,136.719,30.762,37.598,62.988,13.672
1586549945.652,113.77,33.203,36.621,65.43,13.672
1586549945.656,-71.289,33.203,38.086,-11.719,-9.766
1586549945.66,-50.293,33.691,36.621,-24.414,10.742
1586549945.664,100.098,32.227,34.18,35.645,34.668
1586549945.668,138.184,31.738,40.039,65.43,16.602
1586549945.672,-31.25,35.645,38.574,2.93,24.902
1586549945.676,-71.777,36.133,34.18,-25.879,23.438
1586549945.679,54.688,30.762,36.621,31.738,-3.418
1586549945.683,158.203,30.762,41.992,86.914,-2.441
1586549945.687,18.066,34.18,42.969,29.785,-7.324
1586549945.691,-89.844,33.203,41.504,-36.133,6.836
1586549945.695,12.207,37.109,40.527,-0.977,4.883
1586549945.699,152.344,35.645,38.574,72.266,12.695
1586549945.703,70.312,29.785,34.668,50.293,46.387
1586549945.707,-86.914,29.785,33.203,-25.391,39.551
1586549945.711,-34.668,30.273,33.691,-22.949,-0.977
1586549945.715,128.418,33.203,30.762,53.223,25.879
1586549945.719,126.465,32.715,32.227,73.242,0.977
1586549945.722,-65.918,28.809,36.133,-9.277,-22.949
1586549945.726,-67.871,29.785,35.645,-35.156,4.395
1586549945.73,83.008,30.273,34.18,29.785,-43.457
1586549945.734,153.32,29.297,35.645,78.125,-22.949
1586549945.738,-10.742,27.832,37.598,18.555,3.418
1586549945.742,-85.449,27.344,40.039,-22.949,-32.715
1586549945.746,28.809,25.879,39.062,26.367,10.742
1586549945.75,163.574,27.344,35.645,87.402,67.871
1586549945.754,40.039,31.25,39.062,41.016,1.953
1586549945.758,-92.285,30.273,40.527,-26.855,-2.441
1586549945.761,-9.277,30.762,38.574,-2.441,40.527
1586549945.765,135.254,29.297,38.574,64.453,38.574
1586549945.769,84.473,29.785,37.109,53.711,29.297
1586549945.773,-80.566,33.203,38.574,-21.973,39.551
1586549945.777,-41.016,36.133,39.062,-25.391,51.27
1586549945.781,110.84,37.598,39.551,40.039,33.203
1586549945.785,126.465,41.016,42.969,66.406,46.875
1586549945.789,-48.34,38.574,41.016,4.883,8.789
1586549945.793,-73.242,34.18,40.527,-25.391,6.348
1586549945.797,63.477,34.668,40.039,27.832,20.508
1586549945.801,153.32,36.621,39.062,81.055,8.301
1586549945.804,-2.441,36.133,40.039,13.184,43.457
1586549945.808,-89.355,34.18,40.039,-44.922,47.363
1586549945.812,25.879,36.133,40.039,-0.977,32.715
1586549945.816,157.715,37.598,38.086,70.312,47.363
1586549945.82,48.828,36.133,39.551,36.621,29.785
1586549945.824,-86.426,36.621,38.574,-28.809,4.883
1586549945.828,-16.113,36.621,33.691,-8.789,8.789
1586549945.832,132.324,35.645,35.645,58.594,-12.695
1586549945.836,91.797,37.109,37.598,57.617,-36.133
1586549945.84,-76.172,40.039,37.109,-13.184,-62.988
1586549945.844,-51.27,38.086,37.109,-30.762,2.93
1586549945.847,90.82,35.645,35.645,35.645,74.219
1586549945.851,126.465,36.133,35.645,73.242,71.289
1586549945.855,-45.898,36.133,38.086,-0.977,26.367
1586549945.859,-83.008,35.156,36.133,-31.25,27.832
1586549945.863,47.363,33.691,36.621,29.297,47.852
1586549945.867,152.344,35.156,36.621,85.449,47.363
1586549945.871,10.742,38.086,35.645,30.273,67.871
1586549945.875,-85.938,37.109,35.156,-25.391,41.016
1586549945.879,19.043,40.039,33.691,4.883,3.418
1586549945.883,158.203,41.992,34.668,79.59,35.645
1586549945.886,63.965,42.969,41.992,61.523,82.52
1586549945.89,-87.402,40.527,39.551,-17.578,75.684
1586549945.894,-29.785,36.621,38.574,-12.207,43.945
1586549945.898,121.582,35.156,36.621,57.617,17.09
1586549945.902,117.188,36.133,32.227,72.266,48.828
1586549945.906,-59.082,38.086,37.598,-2.93,62.012
1586549945.91,-52.246,37.109,36.133,-20.02,16.602
1586549945.914,96.68,36.621,34.18,45.898,13.672
1586549945.918,151.367,36.621,32.227,73.242,-5.859
1586549945.922,-24.902,36.133,35.156,3.906,-5.371
1586549945.926,-78.613,37.109,36.621,-35.645,0.977
1586549945.929,46.387,38.086,34.668,10.742,-16.602
1586549945.933,155.762,36.621,36.133,75.684,12.695
1586549945.937,20.02,35.645,38.086,32.715,3.418
1586549945.941,-94.238,33.691,41.992,-25.391,9.277
1586549945.945,1.465,35.156,40.527,-2.93,-0.488
1586549945.949,145.996,35.156,39.062,59.57,-1.465
1586549945.953,76.172,34.668,37.598,46.387,22.461
1586549945.957,-79.102,38.574,38.086,-24.414,9.766
1586549945.961,-23.926,41.504,40.039,-10.742,24.414
1586549945.965,124.512,40.527,35.645,59.57,79.59
1586549945.969,123.535,36.133,35.645,70.801,56.152
1586549945.972,-56.641,34.668,38.086,-5.859,-28.809
1586549945.976,-57.129,37.109,36.133,-34.668,-8.301
1586549945.98,92.285,35.645,35.645,26.855,12.695
1586549945.984,156.738,33.203,35.156,70.801,7.324
1586549945.988,-12.695,34.18,36.621,17.09,27.832
1586549945.992,-79.59,34.18,39.062,-22.949,8.789
1586549945.996,33.203,32.227,38.574,6.348,-41.992
1586549946,159.18,30.762,36.133,74.707,-31.738
1586549946.004,41.016,33.203,34.668,40.039,12.207
1586549946.008,-95.703,32.227,33.203,-33.203,5.859
1586549946.011,-14.648,31.25,34.18,-8.789,1.953
1586549946.015,138.672,33.203,31.738,66.895,70.312
1586549946.019,92.285,34.668,29.785,57.617,52.734
1586549946.023,-75.195,33.203,34.18,-21.973,17.09
1586549946.027,-48.828,31.25,34.668,-26.367,10.742
1586549946.031,106.445,31.25,34.668,48.828,15.625
1586549946.035,139.16,33.691,35.156,77.637,47.363
1586549946.039,-36.133,34.668,33.203,5.371,58.105
1586549946.043,-71.289,34.668,34.18,-23.926,44.434
1586549946.047,62.988,40.039,37.598,32.715,43.945
1586549946.051,161.133,37.598,33.691,83.984,50.781
1586549946.054,2.441,31.738,30.762,24.902,-5.371
1586549946.058,-80.566,31.738,32.227,-30.273,14.648
1586549946.062,20.02,31.738,33.691,4.883,60.547
1586549946.066,147.949,33.691,34.18,70.801,21.484
1586549946.07,63.965,35.156,37.598,46.387,0.488
1586549946.074,-74.219,35.156,37.598,-20.508,10.254
1586549946.078,-9.766,38.574,36.133,-9.766,11.23
1586549946.082,143.555,39.062,38.574,64.453,47.852
1586549946.086,108.887,39.551,39.551,72.266,19.531
1586549946.09,-66.406,44.434,39.062,-5.371,-4.395
1586549946.094,-40.039,45.41,36.133,-18.555,1.465
1586549946.097,104.98,45.41,36.133,41.992,4.883
1586549946.101,145.508,46.875,38.086,76.66,42.969
1586549946.105,-25.879,46.387,38.574,4.395,45.898
1586549946.109,-71.777,43.457,35.645,-37.598,19.043
1586549946.113,49.805,42.48,34.668,15.625,11.23
1586549946.117,156.25,44.922,39.062,78.613,0.488
1586549946.121,12.695,46.387,40.527,23.926,-24.414
1586549946.125,-99.121,43.457,40.527,-43.457,-19.043
1586549946.129,0.977,43.945,38.574,-5.859,-16.113
1586549946.133,141.602,42.48,36.133,67.383,11.719
1586549946.136,62.012,42.48,37.598,44.434,66.406
1586549946.14,-96.191,43.457,37.598,-29.297,43.945
1586549946.144,-37.598,41.504,36.621,-20.02,-29.297
1586549946.148,121.094,41.504,36.133,51.758,9.766
1586549946.152,114.258,41.504,35.645,62.988,17.09
1586549946.156,-62.5,41.504,33.203,-7.812,14.648
1586549946.16,-55.664,41.504,32.715,-24.902,48.828
1586549946.164,90.82,42.48,35.156,37.598,18.066
1586549946.168,150.391,41.016,36.621,81.055,-4.883
1586549946.172,-13.184,37.598,37.109,17.578,10.254
1586549946.176,-75.684,35.156,37.598,-24.414,12.695
1586549946.179,31.738,36.133,36.133,19.531,24.414
1586549946.183,147.949,33.203,34.18,80.078,43.945
1586549946.187,28.32,32.227,39.551,34.18,43.457
1586549946.191,-87.891,35.645,41.992,-23.438,1.953
1586549946.195,0.488,32.227,40.039,1.953,-40.527
1586549946.199,145.508,31.738,39.551,64.941,-42.969
1586549946.203,87.402,31.738,40.527,57.129,-6.836
1586549946.207,-67.871,30.762,41.016,-14.16,23.926
1586549946.211,-27.344,32.227,40.039,-15.137,14.648
1586549946.215,114.258,30.762,38.574,58.105,43.457
1586549946.219,126.465,28.32,38.086,80.078,60.059
1586549946.222,-41.504,29.297,39.551,7.812,12.695
1586549946.226,-53.223,27.344,39.551,-28.809,-1.953
1586549946.23,83.008,26.367,35.645,21.973,33.203
1586549946.234,165.527,31.25,34.18,76.66,17.09
1586549946.238,5.371,31.738,34.18,18.066,-4.883
1586549946.242,-83.008,30.762,35.156,-33.691,13.672
1586549946.246,27.832,29.297,34.18,6.836,42.48
1586549946.25,159.18,27.832,33.203,78.125,22.949
1586549946.254,38.086,27.832,35.156,43.945,-63.477
1586549946.258,-94.727,26.367,36.133,-24.414,-31.25
1586549946.261,-13.672,28.32,35.156,-4.883,-30.762
1586549946.265,134.766,31.738,35.156,69.336,-48.828
1586549946.269,90.82,35.156,36.133,62.5,-21.484
1586549946.273,-78.613,32.715,37.109,-24.414,6.836
1586549946.277,-48.34,31.738,37.109,-30.273,-7.324
1586549946.281,101.562,35.156,40.039,43.945,-58.105
1586549946.285,131.348,31.738,38.086,72.754,-15.625
1586549946.289,-43.945,30.273,36.621,-2.93,-6.348
1586549946.293,-73.242,28.32,37.109,-35.645,-34.18
1586549946.297,63.477,25.391,36.621,20.02,5.859
1586549946.301,161.133,25.879,38.086,79.59,69.336
1586549946.304,8.789,30.762,40.039,32.227,43.945
1586549946.308,-86.914,32.715,39.551,-23.438,-13.672
1586549946.312,21.484,30.762,34.18,-0.488,-3.906
1586549946.316,157.227,30.273,31.25,71.777,14.16
1586549946.32,59.57,27.344,38.574,54.688,19.043
1586549946.324,-89.355,26.855,39.062,-25.391,50.293
1586549946.328,-23.926,29.785,34.668,-14.16,60.547
1586549946.332,123.535,29.297,34.668,61.523,19.531
1586549946.336,96.68,29.297,36.621,65.918,40.527
1586549946.34,-73.73,31.25,36.621,-7.324,46.387
1586549946.344,-62.5,32.715,34.668,-21.484,27.344
1586549946.347,84.961,35.645,33.691,38.574,24.414
1586549946.351,143.555,35.645,33.203,71.777,30.273
1586549946.355,-24.902,34.668,34.18,6.836,44.922
1586549946.359,-68.359,35.156,32.715,-30.273,32.715
1586549946.363,57.617,32.715,31.738,13.672,83.496
1586549946.367,167.48,30.762,30.762,73.73,48.828
1586549946.371,27.832,32.227,30.762,28.809,1.465
1586549946.375,-94.238,31.25,33.691,-36.133,53.711
1586549946.379,-6.836,29.297,32.227,-1.953,-1.953
1586549946.383,139.16,29.297,31.738,69.336,-56.152
1586549946.386,70.801,32.227,34.18,44.434,-52.734
1586549946.39,-91.309,35.156,35.645,-27.832,-15.625
1586549946.394,-43.945,34.668,37.598,-20.996,20.02
1586549946.398,109.375,35.156,35.645,51.27,21.973
1586549946.402,109.375,33.691,34.668,67.871,33.691
1586549946.406,-65.918,31.25,38.574,-8.301,37.598
1586549946.41,-69.336,28.809,37.109,-29.785,64.941
1586549946.414,72.266,28.32,36.133,32.715,32.227
1586549946.418,134.277,32.227,38.574,74.707,-0.977
1586549946.422,-24.414,30.762,40.039,10.254,53.711
1586549946.426,-81.543,31.25,40.039,-35.645,-0.977
1586549946.429,36.133,33.203,38.086,11.23,6.836
1586549946.433,159.18,34.18,34.668,73.73,37.109
1586549946.437,35.645,34.668,34.668,26.855,-11.719
1586549946.441,-93.262,34.668,35.156,-37.109,-20.508
1586549946.445,-7.812,34.668,33.691,-12.695,-10.742
1586549946.449,143.555,32.715,31.738,66.895,17.578
1586549946.453,88.867,32.227,34.668,61.035,22.461
1586549946.457,-81.055,34.18,36.621,-19.531,5.859
1586549946.461,-42.969,32.715,33.691,-20.508,15.137
1586549946.465,107.91,31.25,31.25,50.293,12.207
1586549946.469,127.441,32.715,32.715,71.289,-19.531
1586549946.472,-53.711,29.785,32.715,-5.859,-22.949
1586549946.476,-80.566,28.32,34.18,-36.133,48.828
1586549946.48,50.293,28.32,33.691,17.578,43.457
1586549946.484,147.949,29.785,34.18,77.637,-34.668
1586549946.488,2.441,30.762,37.109,36.621,0.488
1586549946.492,-83.984,28.32,40.039,-12.695,13.672
1586549946.496,18.555,26.367,41.504,8.301,49.316
1586549946.5,153.809,28.809,41.016,73.242,6.836
1586549946.504,60.547,31.738,39.062,48.828,-36.133
1586549946.508,-82.031,30.273,36.621,-24.902,19.043
1586549946.511,-18.555,29.785,39.551,-14.16,10.254
1586549946.515,128.906,29.785,37.109,58.594,44.434
1586549946.519,96.68,31.25,35.156,60.059,69.824
1586549946.523,-75.195,30.762,38.086,-21.484,12.207
1586549946.527,-48.828,28.32,34.668,-30.273,-20.508
1586549946.531,97.168,29.297,32.715,43.945,-16.113
1586549946.535,134.277,31.25,36.133,75.684,9.277
1586549946.539,-33.203,32.227,37.598,1.953,44.434
1586549946.543,-73.242,33.691,34.668,-33.691,17.09
1586549946.547,56.641,33.203,31.25,23.926,-10.254
1586549946.551,160.645,33.691,34.668,83.008,5.859
1586549946.554,15.625,37.109,37.598,32.227,41.504
1586549946.558,-79.59,40.039,36.621,-24.414,62.5
1586549946.562,20.508,39.062,34.668,1.465,47.363
1586549946.566,159.668,37.109,34.668,82.031,31.25
1586549946.57,75.195,36.133,37.109,66.895,8.789
1586549946.574,-82.031,39.062,39.062,-18.555,9.277
1586549946.578,-21.484,42.969,40.527,-6.348,-11.23
1586549946.582,132.812,40.039,36.621,66.406,19.043
1586549946.586,110.84,36.621,36.133,58.594,70.312
1586549946.59,-67.383,36.621,38.574,-28.32,12.695
1586549946.594,-56.641,37.109,36.621,-36.133,4.395
1586549946.597,85.938,35.156,33.691,34.668,8.301
1586549946.601,149.414,35.645,32.715,74.707,5.371
1586549946.605,-23.926,37.109,36.621,6.836,6.836
1586549946.609,-89.844,36.133,39.551,-41.992,-13.672
1586549946.613,35.645,33.203,36.133,5.859,-15.137
1586549946.617,150.391,32.715,34.668,70.801,-21.484
1586549946.621,20.02,37.109,34.668,29.785,4.395
1586549946.625,-91.309,37.598,35.645,-35.645,4.395
1586549946.629,-2.441,33.691,34.18,-10.254,59.57
1586549946.633,143.066,32.227,32.227,67.871,42.48
1586549946.636,77.148,33.691,36.133,56.152,30.273
1586549946.64,-89.355,33.691,37.109,-26.855,83.984
1586549946.644,-47.363,33.203,36.621,-28.809,37.109
1586549946.648,109.375,35.645,35.156,48.828,28.809
1586549946.652,112.793,35.156,36.133,67.871,10.254
1586549946.656,-63.965,31.738,35.156,-10.742,41.504
1586549946.66,-69.824,34.668,33.203,-30.762,102.051
1586549946.664,72.266,38.574,34.668,28.809,46.875
1586549946.668,153.32,42.969,35.156,69.336,46.387
1586549946.672,-2.441,42.48,34.18,9.277,30.273
1586549946.676,-67.871,37.109,35.156,-35.156,-25.391
1586549946.679,48.34,38.086,34.668,4.883,-47.852
1586549946.683,163.086,39.551,34.668,74.707,-5.371
1586549946.687,41.992,35.645,37.109,47.363,-6.836
1586549946.691,-84.473,35.645,34.668,-28.32,-16.113
1586549946.695,-2.441,37.109,30.273,-20.508,-1.953
1586549946.699,146.484,33.203,29.785,60.547,35.156
1586549946.703,94.727,33.203,34.668,55.176,38.574
1586549946.707,-76.66,34.18,37.598,-23.926,15.137
1586549946.711,-46.875,33.691,37.109,-27.344,14.648
1586549946.715,104.004,33.691,35.156,44.922,18.066
1586549946.719,142.09,32.227,37.109,79.102,-0.488
1586549946.722,-35.645,30.762,38.574,3.418,-46.387
1586549946.726,-74.219,32.227,33.691,-29.785,-39.551
1586549946.73,56.641,32.715,28.809,27.344,-13.184
1586549946.734,152.832,32.715,30.762,80.078,24.902
1586549946.738,4.883,35.156,35.156,23.926,-19.531
1586549946.742,-85.449,33.691,35.645,-35.645,-17.578
1586549946.746,22.949,33.203,35.645,2.93,23.926
1586549946.75,158.691,33.203,36.133,77.637,-41.504
1586549946.754,57.617,33.203,36.621,45.41,-16.113
1586549946.758,-82.52,33.691,38.086,-29.785,49.316
1586549946.761,-15.625,33.691,35.156,-9.766,75.195
1586549946.765,123.047,31.25,31.25,58.594,63.477
1586549946.769,90.332,31.25,33.691,56.152,6.836
1586549946.773,-78.613,32.227,35.645,-13.184,6.836
1586549946.777,-59.57,33.691,35.156,-26.855,34.668
1586549946.781,85.938,31.738,31.25,37.598,19.043
1586549946.785,132.324,28.809,31.25,69.824,-25.879
1586549946.789,-37.598,30.762,33.691,-5.859,-33.203
1586549946.793,-85.938,28.809,35.156,-38.086,21.973
1586549946.797,49.805,29.297,33.691,15.625,52.246
1586549946.801,157.715,34.18,32.715,75.195,26.855
1586549946.804,13.184,39.062,35.156,24.902,7.324
1586549946.808,-95.215,39.062,37.109,-34.668,20.02
1586549946.812,-8.301,33.203,37.109,-6.348,36.621
1586549946.816,136.23,36.621,30.273,62.5,19.531
1586549946.82,62.988,38.574,28.809,49.805,40.039
1586549946.824,-94.727,30.273,33.203,-25.391,29.785
1586549946.828,-36.133,28.809,28.32,-20.508,-16.113
1586549946.832,106.934,28.32,27.344,43.945,-23.438
1586549946.836,95.703,29.297,30.762,56.641,34.668
1586549946.84,-67.383,33.691,31.738,-12.207,77.637
1586549946.844,-65.918,32.227,32.227,-34.18,67.383
1586549946.847,75.195,31.25,32.227,27.832,29.785
1586549946.851,144.043,34.18,34.668,76.172,45.898
1586549946.855,-20.02,33.691,35.645,9.766,-1.465
1586549946.859,-85.449,31.25,36.133,-40.039,5.859
1586549946.863,32.715,33.691,33.203,8.789,63.477
1586549946.867,150.391,33.691,30.762,73.242,-5.859
1586549946.871,25.391,32.227,35.156,30.762,7.324
1586549946.875,-84.961,34.18,36.621,-37.109,49.316
1586549946.879,-0.488,35.156,36.133,-14.648,65.43
1586549946.883,140.625,36.133,34.668,62.5,-2.441
1586549946.886,74.707,35.645,36.133,57.617,16.602
1586549946.89,-92.285,33.691,39.551,-17.578,-21.484
1586549946.894,-42.969,35.156,36.621,-25.391,-59.082
1586549946.898,107.422,35.156,33.203,49.316,11.23
1586549946.902,114.258,33.203,35.156,72.754,36.133
1586549946.906,-63.477,34.18,35.645,-5.371,49.805
1586549946.91,-77.637,30.762,35.645,-27.344,-13.184
1586549946.914,62.012,29.785,37.598,23.438,-24.902
1586549946.918,143.066,33.691,38.574,77.148,-7.324
1586549946.922,-9.277,31.738,36.621,20.508,-26.855
1586549946.926,-88.379,29.297,38.086,-34.668,9.766
1586549946.929,20.996,33.691,39.551,0.977,15.625
1586549946.933,156.738,36.621,34.18,66.895,39.551
1586549946.937,49.316,36.621,33.691,39.062,30.762
1586549946.941,-96.68,35.645,34.668,-34.18,-72.266
1586549946.945,-29.785,34.668,33.691,-13.184,-52.246
1586549946.949,127.441,30.762,32.227,64.941,-9.277
1586549946.953,92.773,30.762,34.18,59.082,28.809
1586549946.957,-76.66,35.156,36.621,-29.785,47.363
1586549946.961,-48.34,36.133,36.133,-24.414,40.527
1586549946.965,96.68,35.156,36.621,54.199,26.367
1586549946.969,124.512,35.156,36.621,66.895,-1.465
1586549946.972,-42.969,37.109,38.086,-8.301,20.996
1586549946.976,-71.777,38.086,38.574,-39.551,56.152
1586549946.98,65.43,36.621,38.086,15.625,120.605
1586549946.984,166.016,35.645,36.621,76.66,69.336
1586549946.988,14.16,36.621,35.645,24.414,-15.625
1586549946.992,-77.148,37.109,38.574,-29.785,-14.648
1586549946.996,33.203,38.574,34.18,6.836,3.906
1586549947,163.086,34.668,31.25,75.684,44.434
1586549947.004,62.012,34.668,34.18,36.133,19.043
1586549947.008,-78.125,41.992,36.621,-37.598,14.16
1586549947.011,-18.066,36.133,33.203,-22.461,-12.695
1586549947.015,125,30.762,28.32,51.758,-26.855
1586549947.019,110.84,35.156,30.762,61.035,5.859
1586549947.023,-56.641,32.715,32.227,-20.508,13.184
1586549947.027,-45.898,31.738,34.18,-27.344,-27.832
1586549947.031,93.75,33.203,33.691,39.551,-25.879
1586549947.035,142.578,34.668,33.691,67.383,8.301
1586549947.039,-20.996,39.062,34.668,-1.953,-16.602
1586549947.043,-71.777,37.109,34.18,-37.598,-7.812
1586549947.047,50.293,36.133,32.715,16.113,-2.441
1586549947.051,159.668,39.062,28.809,70.801,30.273
1586549947.054,28.809,39.551,32.715,24.414,65.43
1586549947.058,-82.031,38.574,38.086,-32.227,71.289
1586549947.062,10.742,38.574,35.645,-5.859,75.195
1586549947.066,159.18,40.527,32.715,63.477,-1.465
1586549947.07,82.031,38.574,32.227,50.293,-11.23
1586549947.074,-82.52,34.668,37.598,-20.508,17.578
1586549947.078,-40.527,30.273,41.016,-21.484,-10.254
1586549947.082,110.84,32.227,37.109,49.805,-17.578
1586549947.086,115.723,37.598,36.133,68.359,-6.836
1586549947.09,-64.453,40.039,38.574,-16.602,49.805
1586549947.094,-76.172,37.598,38.086,-44.434,24.902
1586549947.097,75.684,36.133,35.645,22.461,2.441
1586549947.101,150.879,36.133,36.133,66.406,7.324
1586549947.105,-17.09,38.086,39.062,7.324,-23.926
1586549947.109,-83.008,41.016,39.062,-27.832,-16.602
1586549947.113,28.32,37.109,39.551,11.719,4.395
1586549947.117,155.273,36.621,34.18,65.43,35.156
1586549947.121,41.016,36.621,32.227,24.902,-0.488
1586549947.125,-87.402,33.203,36.133,-41.504,-48.34
1586549947.129,-11.719,34.18,33.203,-16.602,-39.551
1586549947.133,129.395,35.645,31.25,62.5,62.012
1586549947.136,74.219,38.086,33.203,56.152,26.855
1586549947.14,-93.262,39.551,34.18,-20.508,-19.531
1586549947.144,-45.41,38.086,35.156,-27.832,46.875
1586549947.148,105.957,39.551,36.621,41.504,61.035
1586549947.152,121.094,40.527,36.133,70.801,50.781
1586549947.156,-55.176,35.645,31.25,-6.348,35.645
1586549947.16,-75.195,33.203,29.785,-28.809,18.066
1586549947.164,62.988,34.18,29.785,20.996,-11.719
1586549947.168,144.531,34.668,34.18,63.965,13.672
1586549947.172,-13.672,35.645,38.086,14.648,34.668
1586549947.176,-89.844,36.621,37.598,-36.133,4.395
1586549947.179,20.02,39.062,37.109,3.906,17.09
1586549947.183,148.926,40.039,33.691,78.613,48.828
1586549947.187,41.504,40.527,34.668,44.922,-29.297
1586549947.191,-101.074,37.598,37.598,-26.855,-21.484
1586549947.195,-22.949,35.645,34.668,-10.742,63.477
1586549947.199,124.512,36.621,34.668,62.012,73.73
1586549947.203,92.285,36.621,34.668,60.059,85.449
1586549947.207,-73.73,37.109,36.133,-22.949,70.312
1586549947.211,-45.898,44.434,37.109,-34.668,25.879
1586549947.215,98.633,43.945,35.645,31.25,-17.09
1586549947.219,138.672,38.574,37.109,69.824,-7.324
1586549947.222,-30.762,40.527,41.504,8.789,-24.414
1586549947.226,-68.359,40.527,37.598,-25.391,14.648
1586549947.23,66.895,34.18,29.297,22.949,104.004
1586549947.234,161.133,32.715,29.297,82.031,34.18
1586549947.238,8.789,37.109,33.691,34.18,8.789
1586549947.242,-83.496,36.133,33.691,-24.414,-2.441
1586549947.246,17.09,36.133,32.715,0.488,-49.316
1586549947.25,143.066,37.598,32.715,71.777,-2.93
1586549947.254,63.965,35.156,34.668,51.758,44.434
1586549947.258,-66.895,37.598,35.156,-27.344,22.949
1586549947.261,-11.23,37.598,37.109,-11.719,-39.551
1586549947.265,127.93,36.621,36.133,69.336,-28.809
1586549947.269,114.258,36.621,33.691,78.613,13.184
1586549947.273,-58.594,35.645,36.621,-2.441,2.441
1586549947.277,-51.758,40.039,38.574,-21.973,3.906
1586549947.281,97.168,41.992,38.086,47.363,-19.531
1586549947.285,157.715,38.574,37.598,81.543,-29.297
1586549947.289,-9.766,40.039,36.133,3.418,3.906
1586549947.293,-68.359,38.574,35.645,-33.691,36.621
1586549947.297,52.734,32.715,34.668,24.902,-10.254
1586549947.301,160.645,30.273,35.645,85.449,-20.996
1586549947.304,28.809,28.32,34.668,37.598,23.926
1586549947.308,-84.473,25.879,29.297,-26.367,-12.207
1586549947.312,-0.488,27.832,30.273,-11.23,21.484
1586549947.316,144.043,31.25,33.691,63.965,42.969
1586549947.32,74.219,28.809,36.621,51.27,17.09
1586549947.324,-77.637,28.809,35.156,-34.668,31.738
1586549947.328,-27.344,34.18,30.273,-32.227,24.902
1586549947.332,113.77,33.203,28.32,47.852,-17.578
1586549947.336,118.652,31.738,30.273,65.43,19.043
1586549947.34,-59.082,30.762,30.273,-11.719,58.105
1586549947.344,-70.312,28.809,30.762,-32.715,30.273
1586549947.347,68.359,27.344,34.18,35.156,-13.184
1586549947.351,146.973,28.809,34.668,75.684,13.184
1586549947.355,-10.254,30.762,33.203,12.695,17.578
1586549947.359,-86.914,28.809,33.691,-29.785,15.137
1586549947.363,30.273,32.715,29.785,0,54.688
1586549947.367,163.086,36.133,29.297,60.059,68.848
1586549947.371,51.27,33.691,34.668,29.297,53.711
1586549947.375,-82.031,35.156,32.227,-34.18,36.133
1586549947.379,-12.207,35.156,30.762,-7.324,20.508
1586549947.383,132.324,34.18,33.691,69.336,-1.465
1586549947.386,82.52,33.203,34.668,62.012,-44.922
1586549947.39,-85.938,30.762,34.18,-23.926,-13.184
1586549947.394,-51.27,32.715,32.715,-39.551,-14.648
1586549947.398,101.074,33.203,30.273,36.133,41.992
1586549947.402,133.301,34.18,31.25,70.312,37.109
1586549947.406,-41.992,34.668,32.227,-0.488,-20.508
1586549947.41,-71.289,33.691,32.715,-32.715,37.598
1586549947.414,68.359,34.18,36.133,22.461,4.883
1586549947.418,158.203,33.691,38.574,80.566,-5.371
1586549947.422,-6.348,34.18,40.527,24.414,27.344
1586549947.426,-86.914,34.18,40.527,-28.32,-0.488
1586549947.429,17.578,33.203,40.039,8.301,-15.137
1586549947.433,143.066,33.691,38.086,70.801,16.602
1586549947.437,55.664,34.668,35.156,44.434,-7.812
1586549947.441,-77.637,35.156,37.109,-29.785,-6.348
1586549947.445,-9.766,35.645,36.133,-17.578,48.34
1586549947.449,133.301,35.156,34.668,59.57,43.945
1586549947.453,104.98,37.598,34.668,54.199,18.555
1586549947.457,-64.453,38.574,35.645,-23.438,13.672
1586549947.461,-53.711,36.621,38.086,-21.973,41.504
1586549947.465,85.449,33.691,37.109,45.41,0
1586549947.469,121.094,33.691,37.598,69.824,-14.648
1586549947.472,-41.504,35.156,36.133,0,-9.766
1586549947.476,-83.496,34.18,30.762,-38.086,-8.789
1586549947.48,39.551,37.109,31.738,15.137,11.23
1586549947.484,144.531,39.062,35.645,77.637,53.223
1586549947.488,0.488,36.133,37.598,20.02,66.895
1586549947.492,-97.168,34.18,37.109,-42.969,-15.625
1586549947.496,5.859,33.203,36.621,-7.812,-14.648
1586549947.5,144.043,32.227,36.621,67.383,16.113
1586549947.504,63.965,32.227,35.156,43.945,-19.043
1586549947.508,-101.562,32.715,39.062,-38.086,-37.109
1586549947.511,-53.711,31.25,39.551,-23.438,-15.625
1586549947.515,116.211,29.785,35.156,53.223,41.992
1586549947.519,112.305,31.738,37.109,58.594,31.25
1586549947.523,-67.383,33.691,40.039,-14.16,-0.488
1586549947.527,-66.895,31.25,37.598,-32.227,8.301
1586549947.531,75.195,29.297,34.668,27.832,18.555
1586549947.535,145.996,31.738,33.691,68.848,22.949
1586549947.539,-27.344,32.227,33.691,8.789,16.602
1586549947.543,-102.051,30.273,30.273,-38.574,13.672
1586549947.547,25.879,32.227,29.297,0,44.922
1586549947.551,155.762,34.18,32.227,71.289,64.941
1586549947.554,29.297,36.133,36.621,35.156,14.648
1586549947.558,-92.285,35.156,35.645,-32.227,-11.23
1586549947.562,-2.93,30.273,32.715,-11.23,7.812
1586549947.566,131.348,30.273,32.227,61.035,-6.348
1586549947.57,70.801,31.738,35.645,55.176,-20.508
1586549947.574,-79.59,33.691,38.086,-21.484,14.16
1586549947.578,-41.016,32.715,37.598,-24.414,47.363
1586549947.582,106.445,31.25,36.133,47.852,5.371
1586549947.586,123.535,35.156,33.691,68.848,16.602
1586549947.59,-53.711,35.156,33.203,-4.395,61.523
1586549947.594,-71.777,35.156,32.715,-27.344,35.645
1586549947.597,66.895,32.715,35.156,32.227,32.715
1586549947.601,147.461,31.738,40.527,86.426,66.895
1586549947.605,-8.789,32.227,38.086,29.297,40.039
1586549947.609,-77.637,29.785,38.086,-24.414,-1.465
1586549947.613,27.832,29.297,36.621,19.531,36.133
1586549947.617,145.508,32.227,31.738,83.496,52.734
1586549947.621,35.156,32.715,37.598,41.504,23.926
1586549947.625,-100.586,29.297,40.527,-32.715,12.695
1586549947.629,-23.438,28.32,39.062,-16.113,-55.664
1586549947.633,129.883,29.785,34.18,57.129,-14.16
1586549947.636,88.379,31.25,38.086,60.059,35.156
1586549947.64,-84.473,31.25,41.016,-23.438,19.531
1586549947.644,-61.035,31.738,34.668,-37.109,6.348
1586549947.648,92.285,32.715,35.645,38.086,-35.645
1586549947.652,138.672,33.691,37.598,74.219,25.879
1586549947.656,-32.227,33.203,35.645,6.348,55.664
1586549947.66,-72.266,31.25,34.668,-26.855,88.379
1586549947.664,56.152,32.715,35.156,26.367,102.051
1586549947.668,158.691,38.086,36.133,86.426,55.664
1586549947.672,8.789,36.621,34.668,28.32,34.668
1586549947.676,-94.238,31.25,32.715,-33.691,52.734
1586549947.679,14.16,32.227,29.297,1.953,29.785
1586549947.683,149.414,32.227,28.32,69.336,41.992
1586549947.687,55.176,32.227,29.785,42.48,51.27
1586549947.691,-81.055,31.738,30.762,-28.32,6.836
1586549947.695,-16.113,32.227,32.227,-14.648,31.25
1586549947.699,122.07,29.785,31.25,58.594,75.195
1586549947.703,93.262,27.832,33.691,66.406,62.012
1586549947.707,-74.707,29.297,35.645,-14.648,38.086
1586549947.711,-46.875,27.832,31.738,-32.715,30.762
1586549947.715,98.633,27.832,30.762,39.062,-23.438
1586549947.719,142.578,28.809,32.715,78.125,-62.5
1586549947.722,-28.809,32.715,34.18,2.93,-6.836
1586549947.726,-73.73,31.25,34.18,-36.621,11.23
1586549947.73,52.246,30.273,33.203,15.137,-51.27
1586549947.734,157.715,34.668,31.738,72.754,-68.359
1586549947.738,27.832,35.156,33.203,23.926,2.93
1586549947.742,-83.496,31.738,37.109,-34.668,4.395
1586549947.746,4.395,29.785,37.109,-4.883,-28.32
1586549947.75,140.625,30.762,34.668,72.754,42.969
1586549947.754,61.523,33.203,34.668,54.688,44.434
1586549947.758,-94.727,33.691,34.18,-26.855,47.363
1586549947.761,-42.969,32.227,34.18,-17.578,49.316
1586549947.765,115.234,32.715,35.156,59.57,46.875
1586549947.769,120.605,36.133,39.551,73.73,82.52
1586549947.773,-54.688,38.086,42.969,-6.836,-2.441
1586549947.777,-54.688,36.621,43.945,-23.926,26.367
1586549947.781,89.355,38.086,45.41,36.621,38.086
1586549947.785,152.832,40.527,40.527,73.242,-19.043
1586549947.789,-6.348,36.621,40.039,18.066,-19.531
1586549947.793,-63.477,36.133,40.527,-29.297,-5.371
1586549947.797,53.711,39.062,37.598,17.578,21.484
1586549947.801,171.387,35.645,40.527,95.215,41.016
1586549947.804,41.992,34.668,42.48,50.293,3.418
1586549947.808,-80.566,32.227,38.086,-26.855,-38.086
1586549947.812,-0.977,29.785,36.621,-9.277,-36.133
1586549947.816,143.066,33.691,39.551,78.125,-13.184
1586549947.82,98.633,35.156,39.062,67.383,43.457
1586549947.824,-68.359,34.668,38.574,-16.602,52.246
1586549947.828,-34.18,33.203,34.668,-15.625,24.902
1586549947.832,118.164,26.855,35.156,54.688,-35.156
1586549947.836,130.859,26.367,37.598,76.66,-9.766
1586549947.84,-47.363,32.227,38.574,3.906,-1.953
1586549947.844,-67.383,34.18,39.062,-22.949,-48.828
1586549947.847,59.57,34.668,37.109,25.879,8.301
1586549947.851,144.043,33.203,38.086,78.613,76.172
1586549947.855,-2.93,34.18,40.527,24.902,31.738
1586549947.859,-97.656,37.598,38.086,-35.645,-14.16
1586549947.863,14.648,39.062,34.668,0.488,-10.742
1586549947.867,146.484,39.062,33.691,71.289,6.348
1586549947.871,33.203,39.062,34.18,36.621,32.227
1586549947.875,-93.75,39.062,32.715,-31.25,13.184
1586549947.879,-16.113,41.016,30.273,-9.277,53.223
1586549947.883,124.023,39.062,31.738,59.082,29.297
1586549947.886,95.215,37.109,36.133,60.547,-44.434
1586549947.89,-65.43,36.621,40.039,-6.836,-22.461
1586549947.894,-41.016,36.621,33.203,-11.719,5.371
1586549947.898,87.891,35.156,32.715,44.922,41.504
1586549947.902,123.535,32.227,36.133,67.383,46.875
1586549947.906,-48.34,34.668,35.645,-4.395,18.066
1586549947.91,-86.914,35.645,39.551,-37.109,-18.555
1586549947.914,58.105,34.668,36.133,16.602,14.648
1586549947.918,153.809,34.18,29.785,75.195,88.379
1586549947.922,-0.488,33.203,33.691,19.043,74.707
1586549947.926,-92.285,32.715,34.668,-39.062,40.039
1586549947.929,11.719,26.367,31.738,-2.441,30.762
1586549947.933,143.555,27.832,30.762,67.871,58.594
1586549947.937,52.734,35.156,32.227,49.316,55.176
1586549947.941,-92.773,30.762,31.25,-23.438,41.016
1586549947.945,-31.738,28.32,28.809,-17.578,22.949
1586549947.949,116.211,30.762,27.344,54.199,24.902
1586549947.953,104.004,31.738,28.809,64.453,-28.809
1586549947.957,-67.383,33.203,30.762,-7.324,-39.551
1586549947.961,-62.5,30.273,30.762,-25.879,35.645
1586549947.965,74.707,29.297,32.715,30.762,19.531
1586549947.969,141.113,29.297,32.227,74.707,-10.742
1586549947.972,-11.719,26.367,32.715,19.043,-31.738
1586549947.976,-70.312,27.832,38.086,-22.949,-4.883
1586549947.98,53.711,29.297,34.18,17.578,26.855
1586549947.984,154.785,30.273,34.668,77.148,5.371
1586549947.988,20.02,27.344,39.551,32.227,46.387
1586549947.992,-81.055,23.438,35.156,-30.762,45.898
1586549947.996,9.277,28.32,33.203,-1.953,-14.16
1586549948,153.32,31.25,33.203,72.266,50.293
1586549948.004,84.961,31.738,33.203,53.223,60.059
1586549948.008,-75.684,31.738,35.645,-23.926,20.996
1586549948.011,-32.227,29.297,36.133,-16.602,21.973
1586549948.015,114.746,31.738,28.809,51.27,36.621
1586549948.019,124.512,34.18,29.785,67.871,25.879
1586549948.023,-48.34,33.203,31.25,-15.137,52.734
1586549948.027,-60.547,32.227,26.367,-43.945,42.969
1586549948.031,72.754,33.203,28.32,22.461,21.973
1586549948.035,140.137,32.715,30.273,66.406,57.617
1586549948.039,-20.02,29.785,33.203,7.324,56.152
1586549948.043,-95.215,29.297,32.227,-44.922,29.297
1586549948.047,13.672,30.273,30.762,-2.93,-13.672
1586549948.051,144.531,32.715,33.691,71.289,-2.441
1586549948.054,38.086,35.156,33.691,32.715,-16.113
1586549948.058,-81.543,33.691,31.25,-32.227,-41.504
1586549948.062,-19.531,32.715,30.762,-14.648,33.691
1586549948.066,132.812,33.203,29.785,58.105,22.461
1586549948.07,101.562,31.738,30.762,62.988,-59.57
1586549948.074,-79.59,30.273,31.25,-20.508,-62.988
1586549948.078,-36.133,29.785,31.738,-21.484,-9.766
1586549948.082,110.352,30.273,33.203,47.852,45.41
1586549948.086,127.441,33.203,36.133,65.918,64.453
1586549948.09,-36.621,33.691,40.039,2.441,0.488
1586549948.094,-61.035,32.227,37.598,-28.32,-62.5
1586549948.097,67.871,31.738,30.273,22.461,-10.742
1586549948.101,161.133,33.691,30.762,80.566,23.438
1586549948.105,8.301,28.809,40.527,25.879,21.484
1586549948.109,-85.449,28.32,42.969,-27.344,20.508
1586549948.113,21.973,32.227,40.527,8.301,57.129
1586549948.117,161.621,28.809,38.574,77.148,82.031
1586549948.121,60.547,32.715,37.598,44.922,54.688
1586549948.125,-85.938,31.738,40.527,-27.344,-28.809
1586549948.129,-17.09,30.273,40.039,-12.207,-81.543
1586549948.133,132.324,33.691,36.621,60.059,-17.578
1586549948.136,108.887,27.344,39.551,67.871,36.621
1586549948.14,-59.57,27.344,41.504,-13.184,-2.93
1586549948.144,-52.734,31.25,38.574,-32.227,7.324
1586549948.148,78.125,29.785,38.086,37.598,21.973
1586549948.152,119.141,31.25,38.574,71.777,-26.367
1586549948.156,-39.551,34.18,39.062,-1.465,15.137
1586549948.16,-74.219,33.203,40.527,-33.691,62.988
1586549948.164,52.246,31.25,37.598,17.09,15.625
1586549948.168,163.086,30.273,32.715,70.801,1.465
1586549948.172,16.113,30.762,35.645,24.902,14.16
1586549948.176,-91.309,34.18,37.598,-27.832,-18.066
1586549948.179,12.695,32.227,33.691,-0.488,19.043
1586549948.183,144.531,34.18,30.273,64.941,44.434
1586549948.187,68.359,37.598,32.715,42.969,10.742
1586549948.191,-77.637,36.133,36.133,-30.762,-62.5
1586549948.195,-25.391,33.203,34.668,-19.043,-38.086
1586549948.199,124.512,32.227,30.762,54.199,33.203
1586549948.203,106.445,36.621,32.227,60.547,37.598
1586549948.207,-74.219,37.109,31.25,-12.695,29.785
1586549948.211,-68.848,35.156,29.297,-27.832,-3.906
1586549948.215,76.172,33.203,34.668,30.273,-20.508
1586549948.219,136.23,35.645,35.645,72.754,26.855
1586549948.222,-23.926,38.086,37.598,13.672,25.879
1586549948.226,-87.891,33.691,38.086,-33.203,25.391
1586549948.23,29.785,33.691,32.715,4.395,43.945
1586549948.234,145.996,33.691,33.203,65.918,54.199
1586549948.238,5.371,32.227,38.086,26.855,24.902
1586549948.242,-115.723,33.691,35.645,-40.039,-51.758
1586549948.246,-13.184,35.156,34.668,-10.742,-17.578
1586549948.25,137.207,35.645,34.18,66.406,29.297
1586549948.254,71.289,35.645,35.645,46.875,-34.668
1586549948.258,-95.215,34.18,41.504,-28.32,-53.711
1586549948.261,-51.27,31.738,39.551,-21.973,38.086
1586549948.265,99.609,31.25,36.621,47.852,47.852
1586549948.269,110.84,27.344,38.574,69.336,15.625
1586549948.273,-54.688,32.715,41.992,-3.418,-2.93
1586549948.277,-75.684,37.109,41.992,-31.738,-47.363
1586549948.281,64.941,37.598,41.504,25.879,36.621
1586549948.285,157.715,38.574,39.062,71.777,48.828
1586549948.289,-8.301,39.062,37.598,11.719,7.812
1586549948.293,-84.961,39.062,37.598,-33.203,10.742
1586549948.297,34.18,38.086,33.203,7.324,-36.621
1586549948.301,160.645,40.039,30.762,70.312,-41.016
1586549948.304,44.434,39.551,32.715,33.691,-18.555
1586549948.308,-86.426,38.086,31.25,-33.691,-31.738
1586549948.312,-9.277,37.598,34.668,-16.113,34.18
1586549948.316,133.301,39.551,36.621,57.129,41.016
1586549948.32,92.773,41.992,37.109,54.199,-34.18
1586549948.324,-73.242,38.574,42.969,-18.555,-0.488
1586549948.328,-46.875,35.156,41.504,-20.996,62.988
1586549948.332,97.656,38.574,36.621,46.875,22.949
1586549948.336,119.629,37.598,35.645,67.871,-6.348
1586549948.34,-57.129,35.645,35.156,-5.371,25.391
1586549948.344,-81.055,41.504,33.691,-40.039,-16.602
1586549948.347,55.664,41.992,36.133,13.672,20.02
1586549948.351,147.949,38.574,35.645,67.871,41.504
1586549948.355,-2.441,38.574,35.645,21.973,9.766
1586549948.359,-94.727,37.109,35.645,-27.344,64.453
1586549948.363,15.625,37.109,32.715,-0.977,-9.277
1586549948.367,150.391,39.062,30.273,70.801,4.883
1586549948.371,50.781,37.598,33.691,48.828,34.668
1586549948.375,-95.215,38.574,35.156,-23.438,-0.977
1586549948.379,-28.809,39.062,35.156,-16.602,32.715
1586549948.383,123.535,37.109,32.715,50.781,35.156
1586549948.386,104.98,38.086,32.227,62.988,-3.418
1586549948.39,-64.941,39.551,35.645,-12.695,-30.762
1586549948.394,-51.27,40.527,34.18,-29.785,-20.02
1586549948.398,92.285,38.574,29.297,32.227,49.805
1586549948.402,134.277,37.109,29.785,69.824,83.496
1586549948.406,-37.598,37.109,37.598,7.324,19.531
1586549948.41,-85.449,35.645,41.504,-27.832,-35.645
1586549948.414,37.109,35.156,38.086,22.461,-54.688
1586549948.418,149.902,35.156,32.715,83.496,6.836
1586549948.422,20.508,32.227,32.715,30.762,46.387
1586549948.426,-94.727,33.203,32.715,-40.039,27.344
1586549948.429,-1.953,35.645,33.203,-7.812,36.133
1586549948.433,136.719,38.086,32.715,61.035,14.648
1586549948.437,55.664,38.086,36.133,48.34,2.441
1586549948.441,-97.168,34.668,35.645,-25.879,40.039
1586549948.445,-49.316,38.574,28.32,-22.949,42.969
1586549948.449,103.027,36.621,27.832,49.805,-23.926
1586549948.453,105.957,32.227,29.785,65.43,-20.508
1586549948.457,-50.781,37.109,31.738,-13.672,25.391
1586549948.461,-61.035,37.598,36.133,-39.062,-8.789
1586549948.465,65.43,36.133,34.668,29.297,-23.438
1586549948.469,135.254,39.062,37.109,77.637,0.977
1586549948.472,-27.832,39.551,43.945,14.16,31.25
1586549948.476,-83.984,38.086,45.41,-32.715,64.453
1586549948.48,39.551,36.621,44.922,12.207,40.527
1586549948.484,146.973,32.227,42.969,73.242,25.879
1586549948.488,25.879,34.18,41.016,33.691,43.945
1586549948.492,-89.355,36.621,40.527,-32.227,34.18
1586549948.496,-7.812,34.18,39.551,-11.719,24.414
1586549948.5,140.137,34.18,40.527,65.43,28.809
1586549948.504,85.449,36.133,42.48,58.105,-0.488
1586549948.508,-74.707,36.133,41.504,-20.508,4.883
1586549948.511,-29.297,37.109,40.527,-17.09,11.23
1586549948.515,109.863,35.645,39.062,43.945,13.672
1586549948.519,118.164,32.715,40.039,60.547,66.406
1586549948.523,-49.805,33.691,41.992,-5.371,41.992
1586549948.527,-63.477,35.645,40.527,-26.855,36.133
1586549948.531,80.078,33.203,40.039,31.25,52.734
1586549948.535,155.273,28.809,37.109,85.449,21.973
1586549948.539,-3.418,33.691,37.598,30.273,14.16
1586549948.543,-83.984,33.203,41.992,-30.762,-7.812
1586549948.547,27.344,31.738,35.156,7.812,-3.418
1586549948.551,162.109,35.645,30.762,74.219,42.48
1586549948.554,58.594,35.156,38.574,40.039,36.621
1586549948.558,-85.938,36.621,44.434,-30.273,-20.508
1586549948.562,-20.02,35.156,40.527,-16.113,20.996
1586549948.566,141.113,27.344,34.18,63.477,48.828
1586549948.57,112.305,31.738,34.18,65.43,-14.648
1586549948.574,-57.129,38.086,37.598,-17.578,3.906
1586549948.578,-32.715,39.551,36.621,-36.133,16.113
1586549948.582,119.629,41.016,30.273,41.504,-20.996
1586549948.586,156.25,42.48,30.762,79.59,26.855
1586549948.59,-21.973,42.48,36.133,-1.465,20.02
1586549948.594,-67.383,40.527,37.109,-29.297,-34.18
1586549948.597,59.082,38.086,33.691,21.484,41.016
1586549948.601,159.668,39.062,31.738,68.848,11.23
1586549948.605,11.23,41.016,34.668,29.785,-62.012
1586549948.609,-85.449,37.598,36.621,-24.902,-10.254
1586549948.613,18.066,39.062,35.156,6.348,2.441
1586549948.617,157.227,42.48,30.273,75.195,8.789
1586549948.621,72.754,42.48,30.273,46.387,6.348
1586549948.625,-70.801,41.992,30.762,-23.438,-16.113
1586549948.629,-1.465,43.457,29.297,-13.184,-11.719
1586549948.633,134.766,41.504,32.227,61.523,20.996
1586549948.636,114.746,41.992,33.203,68.359,83.984
1586549948.64,-63.965,40.527,33.691,-15.625,48.828
1586549948.644,-65.918,37.598,34.18,-31.738,7.324
1586549948.648,79.59,40.527,31.25,34.668,18.066
1586549948.652,137.695,40.039,31.738,82.52,13.672
1586549948.656,-20.996,41.016,35.645,18.066,25.391
1586549948.66,-73.242,40.039,36.621,-21.484,37.109
1586549948.664,52.734,37.109,35.156,28.32,-9.766
1586549948.668,154.297,36.621,36.133,83.496,-6.348
1586549948.672,16.113,38.574,37.598,39.551,61.035
1586549948.676,-91.797,36.133,36.133,-24.414,55.176
1586549948.679,4.883,34.668,32.715,0.977,20.508
1586549948.683,141.113,33.691,31.738,76.172,23.926
1586549948.687,66.895,32.227,32.715,63.477,35.645
1586549948.691,-80.566,33.203,32.227,-17.09,22.461
1586549948.695,-28.809,31.738,30.273,-19.531,12.695
1586549948.699,120.117,34.18,30.273,58.105,50.781
1586549948.703,124.512,35.156,34.18,81.055,20.508
1586549948.707,-49.316,34.668,34.668,-4.395,29.785
1586549948.711,-62.5,34.18,29.297,-36.133,66.895
1586549948.715,74.707,31.25,30.762,28.809,41.992
1586549948.719,152.344,30.762,32.227,79.102,64.941
1586549948.722,-13.184,32.227,30.273,15.137,28.32
1586549948.726,-91.309,29.297,31.25,-33.203,-3.906
1586549948.73,31.25,29.785,33.691,9.766,-6.348
1586549948.734,154.297,29.297,33.691,76.172,-20.02
1586549948.738,31.738,27.344,36.133,39.062,23.438
1586549948.742,-95.703,30.273,37.598,-29.785,48.34
1586549948.746,-14.16,33.691,37.598,-6.836,16.113
1586549948.75,138.672,37.109,38.574,74.707,7.812
1586549948.754,87.402,34.18,39.062,62.988,13.184
1586549948.758,-89.844,31.25,40.527,-22.461,9.277
1586549948.761,-53.223,34.18,41.992,-24.902,-23.438
1586549948.765,107.422,36.621,39.062,39.062,16.602
1586549948.769,131.836,33.203,35.645,61.523,34.668
1586549948.773,-49.316,31.25,36.133,-13.184,56.152
1586549948.777,-71.289,32.227,36.133,-44.922,87.891
1586549948.781,60.059,31.738,30.273,19.043,37.109
1586549948.785,145.996,31.25,30.762,75.684,-0.488
1586549948.789,-1.953,34.18,37.109,14.16,-6.836
1586549948.793,-90.332,33.691,37.598,-44.922,19.043
1586549948.797,24.902,31.25,34.668,0,9.766
1586549948.801,158.691,33.691,34.668,71.777,33.203
1586549948.804,53.223,36.133,35.645,38.086,0.488
1586549948.808,-86.426,35.156,36.133,-29.785,-20.02
1586549948.812,-19.531,35.645,36.621,-15.137,-18.066
1586549948.816,133.789,38.086,35.645,61.035,14.648
1586549948.82,102.051,39.551,32.227,63.965,57.129
1586549948.824,-77.637,40.039,30.762,-15.625,80.078
1586549948.828,-59.082,37.598,34.18,-26.367,31.738
1586549948.832,97.656,39.062,36.621,39.062,-1.953
1586549948.836,143.066,37.109,34.668,73.242,60.547
1586549948.84,-32.715,33.691,35.645,3.418,62.012
1586549948.844,-80.078,36.621,38.574,-31.738,47.852
1586549948.847,43.945,36.133,39.062,22.461,20.02
1586549948.851,153.809,36.133,38.086,86.426,29.785
1586549948.855,22.949,39.551,37.598,37.109,37.109
1586549948.859,-78.125,38.574,35.156,-30.762,15.137
1586549948.863,18.066,37.109,34.668,0,46.387
1586549948.867,148.438,34.18,37.109,71.777,77.148
1586549948.871,64.941,33.203,39.062,51.27,60.547
1586549948.875,-84.961,34.18,40.527,-23.926,38.574
1586549948.879,-22.949,32.715,38.574,-23.926,23.926
1586549948.883,133.301,34.18,34.668,46.387,3.906
1586549948.886,112.305,34.18,38.574,67.871,-10.742
1586549948.89,-68.359,31.25,40.527,-8.789,18.066
1586549948.894,-59.082,31.738,37.109,-30.762,13.672
1586549948.898,80.566,31.738,33.203,30.762,2.441
1586549948.902,145.508,32.227,32.715,65.43,14.648
1586549948.906,-16.113,33.203,36.133,3.906,-43.945
1586549948.91,-80.566,31.738,36.621,-34.18,-51.758
1586549948.914,41.504,34.668,33.203,8.789,-4.395
1586549948.918,156.25,34.668,32.227,70.312,27.344
1586549948.922,32.227,30.762,34.668,37.109,2.93
1586549948.926,-82.52,33.203,34.668,-23.438,7.812
1586549948.929,3.906,33.203,33.691,-0.488,25.391
1586549948.933,147.461,33.691,34.18,69.336,20.508
1586549948.937,79.102,36.133,32.227,59.57,3.418
1586549948.941,-89.844,35.156,33.691,-16.602,9.277
1586549948.945,-43.945,34.18,33.691,-30.762,60.547
1586549948.949,107.91,33.691,35.156,37.109,36.133
1586549948.953,112.793,32.227,37.109,62.012,21.973
1586549948.957,-56.152,34.18,33.691,-11.23,54.688
1586549948.961,-65.43,34.668,29.785,-30.273,50.781
1586549948.965,68.359,32.227,31.25,30.762,25.879
1586549948.969,145.508,31.738,34.18,81.543,39.551
1586549948.972,-6.348,35.645,35.156,18.555,41.016
1586549948.976,-76.66,36.621,35.156,-35.645,1.465
1586549948.98,29.297,29.785,33.203,6.348,-14.16
1586549948.984,160.156,30.762,32.227,80.566,-20.996
1586549948.988,50.293,36.133,37.109,41.504,6.836
1586549948.992,-91.309,35.645,37.109,-36.621,43.457
1586549948.996,-12.207,35.156,33.203,-13.672,24.414
1586549949,129.883,34.668,33.203,59.082,1.465
1586549949.004,90.332,39.551,36.621,55.176,24.414
1586549949.008,-74.707,41.504,36.621,-21.484,4.395
1586549949.011,-51.27,35.156,34.18,-29.297,-18.555
1586549949.015,98.633,30.762,34.18,39.551,45.898
1586549949.019,125.488,31.25,33.691,73.73,22.949
1586549949.023,-47.852,32.227,34.668,4.395,-0.977
1586549949.027,-73.242,35.156,34.18,-22.461,16.113
1586549949.031,63.477,35.645,33.203,30.762,5.371
1586549949.035,157.227,33.203,32.227,81.543,68.848
1586549949.039,14.16,33.203,32.715,32.227,24.902
1586549949.043,-83.008,32.227,34.18,-25.879,-38.574
1586549949.047,9.766,35.156,34.668,1.953,24.414
1586549949.051,153.809,36.133,35.156,74.219,31.738
1586549949.054,49.805,35.156,38.086,51.27,20.508
1586549949.058,-104.98,33.203,38.574,-25.879,-68.848
1586549949.062,-28.32,32.715,31.25,-11.23,-91.309
1586549949.066,129.395,35.645,24.414,62.988,-35.156
1586549949.07,114.258,36.621,26.367,71.777,-0.977
1586549949.074,-64.453,33.691,32.715,-11.719,-28.809
1586549949.078,-59.57,32.715,35.156,-35.645,-59.57
1586549949.082,87.891,36.621,35.156,37.598,-6.348
1586549949.086,141.113,39.062,33.691,83.008,11.719
1586549949.09,-20.508,37.109,36.621,12.207,-38.086
1586549949.094,-64.941,33.203,38.086,-28.809,-36.621
1586549949.097,58.594,31.25,37.109,23.926,33.691
1586549949.101,160.645,27.832,35.645,83.008,28.32
1586549949.105,27.344,33.203,33.691,29.785,-23.438
1586549949.109,-80.078,38.086,35.156,-29.785,-44.922
1586549949.113,5.371,37.109,35.156,-2.441,16.602
1586549949.117,142.578,35.156,34.668,71.289,85.449
1586549949.121,67.871,34.668,34.18,55.664,58.594
1586549949.125,-88.867,32.715,35.156,-22.949,22.461
1586549949.129,-33.691,31.25,31.738,-13.184,41.016
1586549949.133,120.605,34.18,26.855,54.199,41.504
1586549949.136,115.234,38.086,32.715,64.941,10.742
1586549949.14,-63.965,38.086,36.133,-7.812,7.324
1586549949.144,-64.453,35.645,35.645,-31.25,23.926
1586549949.148,80.078,36.133,34.668,33.691,89.355
1586549949.152,147.461,36.133,34.18,76.66,27.344
1586549949.156,-14.16,36.133,34.18,8.789,-2.93
1586549949.16,-70.312,39.551,28.809,-36.133,42.969
1586549949.164,46.875,36.621,27.832,13.672,0
1586549949.168,153.32,35.645,34.18,81.055,22.461
1586549949.172,31.25,37.598,35.156,33.691,37.109
1586549949.176,-86.914,34.668,35.156,-36.621,16.113
1586549949.179,-3.906,34.668,30.762,-15.137,-16.602
1586549949.183,146.973,36.133,29.785,64.453,1.465
1586549949.187,91.797,34.668,34.18,63.965,-22.461
1586549949.191,-79.102,33.203,33.691,-15.137,-19.043
1586549949.195,-44.922,33.203,35.156,-19.043,24.902
1586549949.199,99.609,31.25,36.621,50.293,-4.395
1586549949.203,120.605,30.762,37.109,72.754,-7.324
1586549949.207,-42.48,32.227,38.086,-0.977,-12.207
1586549949.211,-62.5,29.297,38.574,-30.273,7.324
1586549949.215,68.848,30.273,39.062,23.438,13.184
1586549949.219,157.715,31.738,37.109,79.102,23.926
1586549949.222,0.977,29.297,39.062,24.414,53.711
1586549949.226,-83.008,27.832,39.062,-26.855,39.062
1586549949.23,27.832,27.344,36.133,13.184,27.832
1586549949.234,153.32,31.738,39.062,83.008,16.113
1586549949.238,52.246,35.156,40.039,53.711,18.555
1586549949.242,-81.543,32.715,36.621,-20.508,6.348
1586549949.246,-3.418,32.715,35.645,-4.395,31.25
1586549949.25,145.02,33.691,34.18,61.035,104.004
1586549949.254,104.98,37.109,33.691,55.664,57.617
1586549949.258,-66.895,33.691,33.203,-20.508,3.418
1586549949.261,-43.945,27.344,34.668,-29.785,-2.441
1586549949.265,103.516,28.809,35.645,38.086,11.719
1586549949.269,133.301,28.809,35.156,66.895,5.859
1586549949.273,-31.738,28.809,37.109,-5.371,-17.09
1586549949.277,-57.617,31.738,36.621,-38.086,-1.953
1586549949.281,74.219,32.715,35.156,12.207,-33.203
1586549949.285,168.457,30.762,33.691,70.801,-31.738
1586549949.289,22.461,29.297,35.645,20.996,11.719
1586549949.293,-71.777,27.344,38.086,-35.645,42.48
1586549949.297,20.996,25.879,37.109,2.93,47.852
1586549949.301,149.902,25.391,34.668,72.754,49.805
1586549949.304,56.641,25.879,35.645,46.875,55.176
1586549949.308,-90.332,26.367,37.598,-29.297,-34.668
1586549949.312,-20.02,27.344,37.109,-24.902,-57.617
1586549949.316,136.23,26.855,36.133,52.246,10.742
1586549949.32,119.629,29.297,34.668,62.988,-16.113
1586549949.324,-50.293,27.344,33.691,-18.066,29.297
1586549949.328,-48.34,24.902,32.227,-37.598,74.219
1586549949.332,95.215,27.344,31.25,29.785,12.695
1586549949.336,146.973,25.391,36.133,74.219,-12.207
1586549949.34,-24.414,24.902,37.598,7.324,-25.391
1586549949.344,-70.312,26.855,37.109,-26.367,28.809
1586549949.347,45.898,27.832,36.133,17.578,26.855
1586549949.351,144.043,26.855,34.18,72.266,-50.293
1586549949.355,14.16,25.879,35.645,35.156,23.926
1586549949.359,-94.727,25.391,36.133,-19.043,45.898
1586549949.363,-2.441,25.391,37.598,1.953,-19.043
1586549949.367,145.02,27.832,39.062,70.801,-23.926
1586549949.371,76.172,27.344,37.109,57.129,58.105
1586549949.375,-82.031,27.344,36.621,-18.555,72.266
1586549949.379,-40.039,29.297,36.133,-15.625,-0.488
1586549949.383,113.281,29.297,34.18,50.781,54.688
1586549949.386,123.047,27.832,34.18,66.406,106.934
1586549949.39,-50.293,31.25,36.621,-10.254,28.809
1586549949.394,-58.105,33.691,36.133,-29.297,28.32
1586549949.398,81.543,32.227,34.668,35.156,9.766
1586549949.402,145.996,33.203,36.133,81.543,19.531
1586549949.406,-16.113,31.738,36.133,21.484,93.262
1586549949.41,-80.566,28.809,34.668,-18.066,45.41
1586549949.414,38.574,28.809,32.715,21.484,5.859
1586549949.418,157.715,31.25,32.715,86.426,82.031
1586549949.422,40.527,33.203,37.109,48.828,102.051
1586549949.426,-78.613,32.715,40.039,-29.785,-2.441
1586549949.429,0,31.25,34.18,-15.625,-15.625
1586549949.433,147.461,28.809,30.762,62.988,6.836
1586549949.437,91.797,28.809,37.109,61.035,6.348
1586549949.441,-75.684,27.344,36.133,-21.973,-26.855
1586549949.445,-42.969,24.902,33.203,-26.367,-56.641
1586549949.449,95.215,27.344,31.25,45.898,-41.992
1586549949.453,117.676,29.785,30.273,75.195,-8.301
1586549949.457,-48.34,30.762,32.227,-0.488,15.625
1586549949.461,-73.73,29.297,31.738,-32.227,11.719
1586549949.465,57.617,26.855,30.762,27.344,25.879
1586549949.469,144.043,26.855,29.297,72.266,18.555
1586549949.472,-13.672,27.344,32.715,13.184,32.227
1586549949.476,-94.238,27.344,35.645,-39.551,45.898
1586549949.48,19.531,28.32,32.227,-6.348,12.207
1586549949.484,145.02,22.461,30.273,65.918,31.738
1586549949.488,35.645,17.09,32.227,37.109,13.184
1586549949.492,-95.215,25.879,32.715,-34.18,-20.508
1586549949.496,-19.043,30.273,34.18,-9.766,-5.859
1586549949.5,121.582,24.414,32.715,61.035,-23.926
1586549949.504,86.426,23.926,34.18,61.035,-33.691
1586549949.508,-79.59,25.391,36.133,-20.02,-28.809
1586549949.511,-61.523,25.391,33.203,-32.715,2.93
1586549949.515,76.66,27.344,33.203,35.156,0.977
1586549949.519,121.582,29.297,32.227,63.965,4.395
1586549949.523,-39.551,25.391,32.715,0,25.879
1586549949.527,-80.566,23.438,34.18,-35.156,-3.418
1586549949.531,44.922,22.461,33.203,14.648,-25.391
1586549949.535,146.484,21.484,28.809,72.754,12.695
1586549949.539,13.184,24.902,31.738,23.438,42.48
1586549949.543,-85.938,26.855,32.715,-37.598,17.578
1586549949.547,9.766,28.32,30.273,-8.301,13.672
1586549949.551,146.973,30.762,31.25,66.406,13.184
1586549949.554,56.641,32.715,35.645,46.875,65.918
1586549949.558,-83.496,33.691,35.156,-28.809,77.637
1586549949.562,-25.391,29.297,31.25,-27.344,37.598
1586549949.566,114.258,29.297,31.738,43.457,54.688
1586549949.57,102.051,33.691,32.715,58.594,8.789
1586549949.574,-65.43,31.738,33.203,-12.207,18.066
1586549949.578,-58.594,33.203,30.762,-31.738,28.809
1586549949.582,81.543,33.203,27.832,32.227,23.926
1586549949.586,145.02,32.715,31.738,77.148,70.801
1586549949.59,-22.949,33.203,34.668,9.766,67.383
1586549949.594,-82.031,30.273,33.691,-30.273,65.43
1586549949.597,41.016,29.785,35.156,16.113,20.02
1586549949.601,157.715,32.227,34.18,74.219,3.906
1586549949.605,27.344,32.715,32.715,33.203,24.414
1586549949.609,-91.797,28.809,31.738,-29.785,15.137
1586549949.613,4.883,29.785,31.25,-1.465,11.719
1586549949.617,150.879,35.156,29.785,74.219,59.082
1586549949.621,89.355,36.621,29.785,57.617,44.922
1586549949.625,-72.754,33.691,29.297,-20.508,41.016
1586549949.629,-22.949,35.156,27.344,-24.902,37.598
1586549949.633,121.582,34.668,26.855,43.945,-35.645
1586549949.636,110.84,32.715,29.297,70.312,-65.43
1586549949.64,-54.688,34.668,31.25,-1.953,-18.066
1586549949.644,-68.848,32.227,32.227,-27.344,56.152
1586549949.648,63.477,31.738,27.832,28.32,40.039
1586549949.652,150.391,33.203,24.414,79.59,-58.105
1586549949.656,-0.488,34.18,25.391,19.043,-5.859
1586549949.66,-62.5,32.715,27.344,-26.367,33.203
1586549949.664,46.875,31.738,29.785,11.719,24.414
1586549949.668,158.691,31.738,28.809,75.195,33.691
1586549949.672,46.875,28.32,25.391,45.41,21.484
1586549949.676,-87.891,36.133,30.273,-24.414,59.57
1586549949.679,-7.324,41.504,35.645,-7.324,31.738
1586549949.683,135.254,36.621,31.25,71.777,23.438
1586549949.687,79.59,32.227,29.297,70.312,4.395
1586549949.691,-77.637,35.645,33.203,-12.695,-45.898
1586549949.695,-42.969,37.109,35.156,-20.508,-30.273
1586549949.699,104.004,34.18,35.645,56.152,-41.504
1586549949.703,133.301,36.133,36.621,79.102,-53.223
1586549949.707,-41.016,38.086,39.062,-4.395,-39.062
1586549949.711,-71.289,36.621,40.039,-34.668,-4.883
1586549949.715,69.336,38.086,35.156,19.531,66.406
1586549949.719,151.367,37.109,35.156,71.289,23.438
1586549949.722,-4.883,32.227,37.109,12.695,24.414
1586549949.726,-89.355,31.25,35.645,-43.457,66.406
1586549949.73,16.602,30.762,35.156,-1.953,8.301
1586549949.734,156.25,30.273,34.668,60.059,26.367
1586549949.738,48.34,32.227,36.133,31.25,34.668
1586549949.742,-100.098,32.715,37.598,-35.156,-15.625
1586549949.746,-24.414,31.25,35.645,-26.855,-30.273
1586549949.75,122.559,29.785,34.18,54.688,-1.953
1586549949.754,95.215,31.738,40.039,65.918,-14.648
1586549949.758,-62.012,33.203,41.504,-17.578,-5.859
1586549949.761,-52.246,35.156,37.109,-26.855,57.617
1586549949.765,78.125,34.18,38.574,40.527,33.203
1586549949.769,128.418,33.203,35.645,74.219,42.969
1586549949.773,-32.715,36.621,31.738,8.301,43.945
1586549949.777,-76.66,33.691,34.18,-37.109,-3.906
1586549949.781,53.711,30.273,35.156,20.02,39.551
1586549949.785,162.598,34.668,34.668,84.961,37.598
1586549949.789,17.09,35.645,36.621,24.902,-5.371
1586549949.793,-87.891,37.109,38.086,-30.273,-22.461
1586549949.797,9.766,34.18,33.691,-1.465,-47.363
1586549949.801,151.367,26.855,34.18,72.266,-51.27
1586549949.804,71.777,34.668,36.621,58.594,-2.93
1586549949.808,-83.008,39.062,34.18,-22.461,12.695
1586549949.812,-24.414,36.621,33.691,-9.277,21.484
1586549949.816,128.906,38.574,30.762,62.012,30.273
1586549949.82,122.07,38.086,31.738,73.73,31.738
1586549949.824,-53.711,40.527,35.156,-4.883,20.996
1586549949.828,-59.57,38.574,34.668,-26.855,0.977
1586549949.832,70.801,34.18,36.133,38.086,-7.324
1586549949.836,132.812,35.156,35.156,79.59,-15.137
1586549949.84,-21.973,35.156,29.297,16.113,-46.387
1586549949.844,-76.66,33.691,26.855,-31.738,4.883
1586549949.847,32.715,30.762,29.785,13.672,45.898
1586549949.851,146.484,31.738,32.227,78.613,17.578
1586549949.855,25.391,33.691,34.668,32.227,-32.227
1586549949.859,-99.121,31.738,34.668,-36.621,-42.969
1586549949.863,-8.301,31.25,35.645,-11.23,4.395
1586549949.867,144.531,34.18,32.715,68.848,1.953
1586549949.871,81.055,35.645,31.738,58.594,20.996
1586549949.875,-75.684,33.203,37.598,-21.973,10.742
1586549949.879,-23.926,37.109,36.621,-20.996,13.184
1586549949.883,117.676,39.062,33.203,51.758,5.371
1586549949.886,123.047,35.645,34.668,77.148,20.02
1586549949.89,-49.316,35.156,37.109,5.859,-37.598
1586549949.894,-61.035,35.645,38.086,-22.461,-63.965
1586549949.898,76.172,32.715,39.062,38.574,41.504
1586549949.902,153.809,31.25,38.086,85.938,38.086
1586549949.906,-2.441,33.691,38.086,17.578,18.066
1586549949.91,-71.289,32.227,35.645,-33.203,47.852
1586549949.914,42.48,32.227,33.203,8.789,23.438
1586549949.918,166.992,32.715,32.715,76.172,-3.906
1586549949.922,50.293,30.762,36.621,42.969,7.324
1586549949.926,-85.938,30.273,39.062,-31.25,15.137
1586549949.929,-2.93,32.227,35.645,-8.789,34.18
1586549949.933,145.508,38.574,32.227,71.777,31.25
1586549949.937,110.352,41.504,36.133,64.941,-5.859
1586549949.941,-51.758,40.527,41.504,-16.602,23.438
1586549949.945,-25.391,43.457,41.016,-21.484,15.625
1586549949.949,115.723,41.504,39.062,51.27,-35.645
1586549949.953,148.438,41.992,35.645,85.938,-54.199
1586549949.957,-22.949,40.527,37.598,11.719,-31.738
1586549949.961,-75.195,33.203,41.504,-28.809,18.555
1586549949.965,49.316,34.18,39.062,25.391,6.836
1586549949.969,153.809,40.039,38.574,80.566,20.508
1586549949.972,10.742,38.086,41.504,26.367,35.645
1586549949.976,-86.426,32.715,38.574,-34.668,-41.016
1586549949.98,13.672,33.203,33.203,5.371,-8.301
1586549949.984,149.902,32.227,32.227,77.148,56.152
1586549949.988,60.547,37.598,35.645,49.316,42.48
1586549949.992,-89.355,40.039,38.574,-16.602,42.969
1586549949.996,-21.973,36.621,36.621,-4.883,36.621
1586549950,127.93,34.668,38.086,58.105,60.059
1586549950.004,105.469,35.156,40.039,63.965,53.223
1586549950.008,-60.547,33.691,40.039,-9.277,25.391
1586549950.011,-50.781,29.297,42.48,-22.461,14.648
1586549950.015,86.914,29.297,42.48,47.363,40.527
1586549950.019,132.812,30.762,42.48,85.938,32.715
1586549950.023,-33.691,28.32,42.969,6.348,35.156
1586549950.027,-76.66,28.809,38.574,-40.527,24.902
1586549950.031,56.152,30.762,35.156,6.836,-40.039
1586549950.035,164.551,31.25,37.109,65.43,-8.789
1586549950.039,18.555,31.25,41.504,25.879,23.438
1586549950.043,-93.75,28.809,38.574,-38.086,10.254
1586549950.047,5.371,29.785,33.691,-13.672,16.602
1586549950.051,145.508,31.738,33.203,62.5,50.293
1586549950.054,69.824,28.809,38.086,48.34,31.25
1586549950.058,-82.52,30.273,40.039,-23.438,1.953
1586549950.062,-30.273,27.832,37.109,-19.531,39.062
1586549950.066,116.699,24.902,37.598,47.852,65.43
1586549950.07,118.652,33.203,37.598,71.289,60.547
1586549950.074,-54.688,35.645,39.062,-2.93,19.043
1586549950.078,-52.734,34.668,41.016,-34.18,20.996
1586549950.082,95.703,35.645,39.551,24.414,-7.324
1586549950.086,155.273,35.645,37.598,69.336,-41.504
1586549950.09,-9.277,32.227,40.527,7.812,0
1586549950.094,-80.566,29.297,42.48,-31.738,20.996
1586549950.097,32.715,32.227,38.086,12.207,28.32
1586549950.101,156.25,30.273,35.645,69.336,61.523
1586549950.105,38.574,31.738,37.598,30.762,27.344
1586549950.109,-83.984,36.621,39.062,-38.086,-10.742
1586549950.113,-5.859,35.156,38.086,-12.207,-5.859
1586549950.117,137.207,33.203,35.156,64.941,27.832
1586549950.121,94.238,35.645,41.504,53.711,1.465
1586549950.125,-60.547,38.574,46.875,-12.695,-66.895
1586549950.129,-38.574,34.18,38.574,-11.719,-26.367
1586549950.133,94.727,29.297,37.109,50.781,62.988
1586549950.136,113.281,28.809,40.527,77.637,49.805
1586549950.14,-55.664,31.25,42.969,5.859,5.859
1586549950.144,-69.336,31.738,41.992,-26.855,21.484
1586549950.148,71.777,31.738,39.062,26.855,13.184
1586549950.152,149.414,32.227,39.551,77.148,-18.555
1586549950.156,-10.742,31.738,40.039,16.602,6.348
1586549950.16,-93.75,29.785,40.527,-38.574,75.195
1586549950.164,15.625,31.25,39.062,6.348,11.719
1586549950.168,156.738,34.668,35.645,83.008,-48.34
1586549950.172,54.199,34.18,31.738,42.969,-9.277
1586549950.176,-83.008,37.109,32.715,-35.156,-1.953
1586549950.179,-5.859,40.039,36.133,-12.695,33.203
1586549950.183,140.137,34.18,36.133,65.43,39.062
1586549950.187,103.516,34.668,35.156,66.895,-23.438
1586549950.191,-60.547,41.016,34.668,-19.043,0
1586549950.195,-44.922,42.48,35.156,-23.926,-2.93
1586549950.199,94.238,40.039,36.133,40.527,-19.043
1586549950.203,138.672,37.109,39.062,67.871,31.25
1586549950.207,-36.133,38.574,39.551,4.395,41.504
1586549950.211,-76.172,34.668,38.574,-34.18,18.066
1586549950.215,57.617,34.668,34.18,25.879,-3.418
1586549950.219,153.809,35.645,33.203,84.961,20.02
1586549950.222,12.207,34.668,33.691,21.973,54.688
1586549950.226,-84.961,34.668,32.715,-37.598,19.531
1586549950.23,15.137,35.156,29.297,-7.324,62.5
1586549950.234,149.414,36.621,27.344,65.918,51.758
1586549950.238,59.57,37.598,33.203,52.246,10.742
1586549950.242,-88.867,37.109,37.598,-19.531,26.855
1586549950.246,-35.645,33.691,38.574,-12.695,-42.48
1586549950.25,112.305,34.668,38.574,61.523,-44.434
1586549950.254,107.91,36.133,36.621,74.707,-4.883
1586549950.258,-62.5,35.645,38.574,0.488,12.207
1586549950.261,-59.57,36.133,38.086,-9.766,11.23
1586549950.265,89.355,35.645,34.18,49.316,-11.719
1586549950.269,151.367,40.039,35.156,82.031,-30.273
1586549950.273,-12.207,41.992,37.109,12.207,-25.391
1586549950.277,-61.523,39.551,37.109,-35.156,18.066
1586549950.281,53.711,36.621,37.598,11.719,28.809
1586549950.285,155.762,31.25,37.598,68.359,35.156
1586549950.289,23.926,28.809,37.598,25.391,118.164
1586549950.293,-82.031,31.25,40.039,-22.461,58.105
1586549950.297,3.906,29.785,41.504,3.906,33.691
1586549950.301,134.277,29.297,39.062,65.918,41.992
1586549950.304,71.777,33.203,39.062,47.363,-62.988
