TP9,AF7,AF8,TP10,Right AUX,Color
-0.488,33.691,33.691,-2.441,24.902,black
140.137,31.738,31.25,50.293,-17.578,black
-84.961,31.25,33.691,-17.09,25.391,black
-38.086,29.297,36.621,-5.371,-1.953,black
128.418,32.227,31.738,58.105,67.383,black
-55.664,32.227,35.645,-5.371,-22.461,black
85.449,31.25,30.762,34.18,74.219,black
145.996,31.25,28.809,65.918,59.57,black
-16.113,31.25,33.203,13.184,21.973,black
-80.078,30.273,34.18,-15.625,1.465,black
162.109,34.18,29.785,77.637,34.668,black
47.363,34.668,33.691,48.34,37.109,black
-70.312,35.645,36.621,-12.207,9.766,black
102.539,41.992,34.18,33.691,35.645,black
-62.988,38.574,38.574,-19.531,57.617,black
-34.668,33.203,39.551,-4.883,12.695,black
123.047,32.715,37.109,46.387,45.41,black
135.254,33.203,38.574,56.152,78.125,black
-32.227,32.715,39.551,0,45.898,black
-47.852,33.691,37.598,-12.695,4.883,black
92.773,33.203,36.133,34.668,-5.371,black
166.504,30.762,34.18,70.312,-7.324,black
22.461,35.645,30.762,12.695,48.828,black
154.785,35.156,34.18,64.941,32.715,black
-79.59,35.156,32.715,-27.832,7.812,black
-11.719,32.715,25.879,-8.301,-44.434,black
133.789,30.762,26.367,46.875,-8.301,black
93.262,29.785,28.809,41.992,41.992,black
-62.5,30.273,25.879,-17.578,11.23,black
-41.504,30.273,24.414,-11.23,-49.316,black
111.816,29.297,27.344,52.246,-40.527,black
138.672,27.832,33.203,75.684,0,black
-38.086,29.297,30.762,5.371,25.391,black
-80.078,31.738,28.809,-21.973,-21.484,black
50.293,31.25,31.738,26.367,-32.227,black
146.973,30.273,27.344,52.246,12.695,black
11.719,30.273,27.344,3.906,10.254,black
-81.055,29.785,31.25,-26.367,34.18,black
11.23,32.227,32.227,9.277,43.945,black
164.551,30.273,32.715,57.129,45.898,black
-67.383,33.691,32.227,-20.508,42.48,black
96.191,34.18,29.297,64.453,-13.184,black
-79.102,32.715,31.738,-9.277,31.25,black
78.613,33.691,30.762,37.598,45.41,black
143.555,36.133,31.25,53.223,42.969,black
-65.918,34.668,34.18,-12.695,10.254,black
46.387,31.25,34.668,26.855,43.945,black
152.344,32.227,30.273,60.059,57.617,black
27.344,32.715,30.762,20.508,93.75,black
-86.426,29.785,34.668,-20.508,58.105,black
142.09,31.738,33.691,62.988,41.016,black
71.289,31.738,33.203,44.922,32.227,black
-75.195,30.762,32.715,-13.184,0.977,black
121.094,30.762,31.25,46.875,-2.93,black
121.582,32.715,32.227,48.34,51.27,black
-49.316,32.715,37.109,-5.371,34.18,black
79.59,34.18,32.227,33.203,41.016,black
155.273,35.645,31.738,62.012,57.129,black
-4.883,35.645,32.227,18.555,-24.902,black
-86.426,36.133,34.18,-11.23,-52.734,black
141.602,35.156,32.715,71.777,77.148,black
22.949,35.645,35.156,29.297,62.012,black
-85.449,36.621,32.227,-27.344,99.121,black
-6.348,37.109,30.273,-12.695,78.125,black
146.484,36.133,30.762,51.758,61.035,black
-51.27,37.109,28.32,-9.277,18.066,black
100.586,35.156,31.25,46.387,20.02,black
-45.898,36.133,34.668,12.207,41.504,black
-69.824,37.109,35.645,-5.859,42.969,black
67.383,36.621,35.645,40.527,-3.906,black
158.203,36.621,33.691,68.359,-7.324,black
9.277,40.039,31.25,13.184,70.801,black
15.137,34.18,33.203,11.23,-43.945,black
155.273,37.109,28.32,60.059,15.625,black
58.594,32.227,31.738,33.691,-15.625,black
-90.82,29.297,33.691,-19.043,-30.762,black
-32.715,29.785,33.691,5.859,20.508,black
135.742,28.32,33.691,75.684,88.379,black
107.91,31.25,34.668,67.383,128.418,black
-53.223,34.668,35.645,-2.441,93.262,black
-47.852,30.762,35.156,-7.324,45.41,black
136.23,29.297,33.203,64.941,84.473,black
-25.391,31.738,36.133,10.254,45.898,black
64.453,30.762,33.203,32.715,-9.766,black
158.691,30.762,35.645,71.777,15.625,black
10.742,29.297,35.156,18.066,-6.836,black
-99.121,24.414,35.645,-19.531,-8.789,black
135.254,25.879,34.18,62.5,34.18,black
46.875,28.32,36.621,37.109,34.18,black
-98.633,27.344,35.645,-13.672,45.898,black
-37.109,26.855,35.645,-4.883,8.789,black
124.023,28.809,36.133,49.805,27.344,black
104.98,28.32,32.715,51.27,23.926,black
-66.406,29.785,32.715,-4.395,-12.207,black
-68.848,28.32,35.156,-14.16,20.02,black
83.008,28.809,35.156,32.715,-4.395,black
144.043,30.762,36.621,63.965,5.371,black
-22.461,29.297,38.574,12.695,16.113,black
153.32,27.832,31.738,72.754,77.148,black
29.785,30.273,32.227,22.949,94.238,black
-78.613,31.738,33.203,-23.438,46.875,black
151.855,29.785,31.25,54.199,36.133,black
78.125,29.297,29.785,39.551,38.086,black
-89.355,27.344,34.18,-13.184,44.922,black
-52.246,28.809,34.18,-6.348,6.836,black
108.398,30.762,32.227,57.617,-28.32,black
122.559,32.227,32.227,61.035,14.648,black
-77.148,27.344,36.621,-13.672,18.066,black
62.988,30.762,34.668,32.715,41.016,black
139.648,34.18,35.156,65.918,13.672,black
20.02,32.227,37.598,21.973,-23.926,black
-81.055,33.691,38.086,-34.18,16.113,black
-6.836,33.203,37.109,-5.371,7.324,black
154.785,33.691,36.133,52.246,-14.16,black
100.098,31.738,35.156,45.41,32.227,black
-66.406,33.691,36.133,-17.578,70.312,black
-48.34,35.645,35.156,-22.461,28.32,black
91.797,33.691,33.203,37.109,-9.277,black
124.023,33.691,34.668,59.57,4.883,black
-31.738,38.086,36.621,6.348,0,black
-59.082,36.133,33.691,-12.695,18.066,black
69.336,33.203,30.273,22.461,37.598,black
9.277,29.297,38.086,15.625,49.316,black
-83.008,31.738,31.738,-24.902,43.457,black
20.508,33.203,29.297,18.066,57.617,black
156.25,31.25,32.715,69.824,27.344,black
50.781,30.273,35.645,37.598,8.301,black
-89.355,29.297,35.645,-20.996,-2.93,black
-29.785,28.32,28.809,-15.625,22.949,black
107.422,31.25,31.25,44.434,16.113,black
-50.293,31.25,34.668,-13.672,36.133,black
-41.016,30.762,36.133,-14.648,43.457,black
101.074,30.762,35.156,36.133,21.973,black
147.461,30.762,34.18,66.406,-18.555,black
-25.879,28.809,37.109,16.602,-43.945,black
-89.844,28.809,38.086,-12.695,-4.883,black
41.992,26.855,35.156,30.273,23.926,black
16.113,30.762,34.668,3.906,-3.418,black
-68.359,33.203,34.18,-12.207,28.32,black
119.141,30.762,31.738,44.434,-5.859,black
117.188,34.668,31.738,55.664,0.977,black
90.82,32.715,34.668,52.734,-3.418,black
151.367,35.645,32.715,74.707,22.949,black
-82.031,31.738,33.691,-14.648,23.438,black
155.762,33.203,32.227,69.824,12.695,black
25.879,33.203,32.227,36.133,89.844,black
-87.402,33.691,31.25,-20.508,10.254,black
-7.812,34.18,29.297,-1.465,27.344,black
144.531,34.668,31.738,59.082,62.988,black
85.938,35.645,31.738,42.969,-0.488,black
-73.242,34.18,29.785,-14.16,-44.434,black
-38.574,32.227,30.273,-14.648,17.578,black
110.352,33.691,30.273,53.711,37.598,black
122.07,33.691,33.691,90.332,28.809,black
-47.363,31.738,38.574,18.555,2.441,black
-69.824,33.691,36.621,-19.043,22.461,black
61.035,31.25,31.738,23.926,64.941,black
145.996,30.273,31.25,55.176,96.68,black
9.277,36.133,35.156,15.625,88.379,black
-70.801,37.598,37.109,0.488,28.809,black
35.156,37.598,36.621,21.973,13.672,black
161.133,35.645,33.203,50.781,4.395,black
-27.344,34.18,35.645,4.883,-0.977,black
100.586,33.203,34.668,57.617,12.695,black
-57.129,35.645,37.598,-0.977,-10.254,black
-45.898,31.25,37.598,-2.93,4.883,black
107.422,33.203,34.18,51.27,42.969,black
146.484,35.156,33.203,67.383,62.988,black
-37.109,34.668,34.668,8.301,41.504,black
48.828,32.715,37.109,41.016,11.719,black
140.137,31.25,34.668,76.66,52.246,black
7.812,31.738,37.109,29.785,88.379,black
-90.332,30.762,41.504,-19.531,38.574,black
1.465,28.809,39.062,12.207,65.918,black
139.648,26.367,36.621,69.336,97.656,black
58.105,30.273,34.18,43.457,73.73,black
-78.613,33.691,33.203,-18.066,23.438,black
-22.949,31.738,34.18,-5.371,-2.93,black
109.863,33.691,33.203,57.129,21.973,black
-65.43,32.227,33.203,-4.395,50.293,black
-65.918,30.273,35.156,-2.93,37.109,black
74.707,31.738,32.227,42.969,41.016,black
126.465,32.227,32.227,62.5,38.574,black
-26.855,33.203,33.203,13.672,28.32,black
-77.637,32.715,29.785,-11.23,15.625,black
48.828,32.227,28.809,15.625,-52.246,black
169.434,31.738,29.297,57.617,-8.789,black
32.227,32.715,32.227,20.02,64.453,black
-89.844,33.691,32.227,-24.902,31.738,black
-0.977,32.715,32.715,7.812,36.133,black
78.125,32.715,34.668,46.387,32.715,black
-68.848,35.645,35.156,-8.789,40.039,black
-22.949,37.109,36.133,6.836,52.734,black
127.441,33.691,36.621,64.453,35.156,black
136.719,35.156,35.645,72.266,76.66,black
-43.457,39.062,36.133,8.789,33.691,black
75.195,34.18,31.25,40.039,54.688,black
145.996,35.645,29.785,66.895,81.543,black
-20.02,34.18,33.203,9.277,93.75,black
-92.285,34.18,35.645,-23.438,32.715,black
36.621,35.156,34.668,23.926,11.719,black
166.504,35.156,31.738,69.824,20.02,black
47.363,36.133,35.645,36.621,7.324,black
-87.891,33.691,38.086,-12.207,20.02,black
128.418,35.645,31.25,49.316,18.066,black
-79.59,36.621,31.25,-18.066,59.57,black
-46.875,35.156,31.738,-7.324,1.953,black
127.93,31.738,34.18,55.664,24.902,black
-37.109,32.227,35.645,1.953,-27.832,black
-68.848,29.785,35.156,-23.926,-79.102,black
66.895,30.762,34.18,31.25,27.832,black
11.719,31.25,38.574,25.391,-1.465,black
-82.031,29.785,36.621,-7.324,28.32,black
17.578,34.668,34.18,18.555,22.949,black
149.414,34.18,34.668,62.5,-30.762,black
49.316,37.109,32.715,26.855,49.316,black
-77.637,41.016,35.156,-31.25,42.969,black
144.531,35.156,33.203,47.852,42.969,black
104.004,34.668,32.715,46.875,6.836,black
-52.734,35.156,33.203,-4.395,8.301,black
140.625,37.598,31.738,54.688,-4.883,black
-28.809,38.086,33.691,8.301,-17.578,black
54.199,36.621,37.598,33.203,-5.371,black
154.297,35.645,34.668,59.57,-0.488,black
-92.773,33.691,34.18,-20.508,20.508,black
-4.883,33.691,30.762,3.906,41.992,black
149.414,29.297,28.809,61.523,24.902,black
58.594,28.809,33.691,36.621,45.898,black
119.141,32.715,33.203,47.363,35.645,black
111.816,30.273,30.273,50.293,60.547,black
-60.059,30.273,33.691,-6.348,39.062,black
-12.695,33.691,31.25,5.371,28.32,black
43.457,31.25,37.598,11.23,68.359,black
159.18,31.738,34.18,62.012,20.508,black
24.902,34.18,33.203,22.949,-39.062,black
-21.973,31.25,34.18,17.09,7.812,black
128.906,33.203,29.785,55.664,64.941,black
74.219,33.203,29.785,29.785,53.223,black
-81.543,33.203,30.273,-23.926,17.09,black
-61.035,30.762,29.785,-14.16,54.199,black
96.191,30.273,28.32,40.527,110.84,black
110.352,33.691,30.273,51.27,157.715,black
-62.5,34.18,32.715,-6.348,92.285,black
-69.824,33.691,31.25,-17.578,41.016,black
76.66,35.645,30.273,38.086,55.664,black
0.977,30.762,35.645,8.301,74.219,black
21.973,30.762,29.297,9.766,77.148,black
153.809,33.203,30.762,68.359,71.777,black
45.898,32.227,32.715,35.156,-3.418,black
-14.16,31.738,27.344,4.883,0.977,black
137.207,29.297,27.832,64.941,2.93,black
94.727,31.738,33.203,51.27,-20.02,black
-66.406,33.203,33.691,-10.254,-32.715,black
103.516,31.738,34.18,35.156,69.336,black
145.996,33.203,35.645,56.152,17.578,black
-27.344,33.691,36.621,-0.977,-29.297,black
-76.172,32.227,35.156,-15.625,37.109,black
53.223,33.203,32.227,31.738,73.73,black
150.391,29.785,32.227,73.242,32.227,black
-82.031,32.227,33.203,-11.719,11.719,black
150.391,27.344,35.645,72.266,-21.484,black
64.941,27.832,33.203,34.18,-23.438,black
-72.754,28.809,34.18,-9.277,-19.043,black
-17.578,29.785,36.133,7.324,-20.508,black
140.625,33.203,35.645,56.641,12.207,black
118.164,34.18,37.598,56.641,29.297,black
-58.105,33.691,39.551,0,-0.977,black
-50.293,34.18,35.645,-5.859,10.254,black
99.609,33.691,37.598,43.945,35.645,black
41.016,33.691,33.203,8.301,-26.367,black
161.133,33.203,35.645,48.828,7.324,black
-70.801,31.25,36.133,-17.578,49.316,black
7.812,31.25,32.715,18.555,21.484,black
151.367,31.25,31.738,73.242,-6.836,black
78.613,33.203,35.156,42.969,13.672,black
-66.895,36.621,35.645,-10.254,26.367,black
-19.531,36.621,35.156,-1.465,25.879,black
130.859,34.18,33.691,50.293,2.93,black
121.582,35.156,32.227,65.918,14.16,black
-48.34,37.109,34.18,6.836,11.719,black
-58.105,33.203,34.668,-8.789,8.789,black
82.031,31.738,33.691,51.27,-3.906,black
157.715,33.691,31.25,74.219,43.457,black
-8.301,30.762,34.668,10.254,46.875,black
-75.684,30.762,35.156,-20.508,-25.879,black
37.598,32.227,29.785,9.277,4.883,black
34.668,30.762,34.668,26.367,57.617,black
-78.125,33.203,31.738,-33.691,57.129,black
-6.836,33.691,30.762,-8.301,-4.395,black
86.426,30.762,28.809,37.109,56.641,black
-81.055,33.691,28.809,-21.973,17.578,black
-53.711,33.203,30.762,-15.625,29.297,black
102.539,31.738,32.715,38.086,5.371,black
117.676,32.715,33.203,55.176,23.438,black
-53.223,33.691,35.645,5.371,45.898,black
-70.312,35.645,37.109,-11.719,37.109,black
60.547,35.156,34.18,40.527,2.93,black
136.23,33.691,31.25,66.895,-15.625,black
1.465,35.645,30.273,12.207,-19.531,black
-63.477,37.109,28.809,-19.043,-0.977,black
27.832,36.621,28.32,15.137,24.414,black
145.02,35.156,30.273,63.477,20.508,black
33.691,33.691,31.25,26.855,-37.109,black
-103.027,34.668,31.738,-19.043,-58.594,black
-30.762,33.203,32.227,-0.488,20.996,black
131.348,32.227,32.227,53.223,8.301,black
99.609,29.785,35.645,50.781,17.578,black
-63.965,33.691,33.203,3.418,9.766,black
140.137,32.715,35.156,60.547,21.484,black
-23.438,33.691,36.133,6.348,36.133,black
158.691,27.832,33.203,75.195,-9.277,black
3.906,29.785,36.621,33.691,2.441,black
-92.285,34.668,32.227,-14.16,-12.207,black
13.672,34.668,30.762,12.695,17.578,black
146.484,32.715,33.203,63.477,46.875,black
57.617,31.738,33.691,30.273,86.426,black
-83.984,34.18,31.25,-30.762,22.461,black
-27.344,35.156,29.297,-8.789,-2.441,black
105.469,31.25,31.25,54.688,-52.734,black
-56.152,31.25,32.227,-3.906,-30.762,black
81.543,31.738,34.18,40.039,49.805,black
136.23,34.18,30.762,64.453,21.484,black
-23.926,33.691,32.715,0.977,-18.066,black
-87.891,32.227,33.203,-28.809,-21.973,black
26.855,33.203,29.785,17.578,-21.484,black
146.973,32.227,31.25,74.219,21.484,black
0.488,33.203,34.18,15.137,72.754,black
76.172,27.832,30.273,33.691,-17.578,black
-78.613,30.762,31.738,-16.602,-30.273,black
-39.551,32.715,33.203,-7.324,88.867,black
116.699,34.18,32.227,41.504,80.078,black
-43.945,35.156,30.273,-3.906,83.496,black
-76.66,33.691,31.25,-17.578,66.895,black
59.57,32.715,29.785,31.25,7.324,black
143.066,34.668,28.809,59.57,28.32,black
-12.695,32.715,30.273,4.883,23.926,black
-87.402,30.273,29.297,-23.438,-33.691,black
45.41,32.227,30.273,41.016,30.762,black
-75.195,33.691,29.297,-22.461,34.668,black
-4.395,32.227,29.297,-5.859,9.766,black
143.066,33.203,28.32,54.688,21.973,black
-57.129,33.203,30.762,-5.859,7.324,black
92.285,28.809,33.203,61.035,3.418,black
-22.949,34.668,32.227,5.859,-17.578,black
-56.641,32.227,31.738,-18.066,-18.066,black
1.465,31.25,31.25,20.02,8.789,black
-76.172,31.738,29.297,-14.648,-14.648,black
14.648,31.738,27.344,16.113,15.625,black
59.082,33.203,33.203,41.504,48.34,black
137.695,34.668,34.18,70.312,10.254,black
108.398,34.18,32.715,57.129,7.324,black
-51.758,34.18,33.203,-5.859,37.598,black
-48.828,33.691,35.645,1.953,41.016,black
-64.941,29.785,36.133,-10.742,30.762,black
32.715,26.367,37.598,25.391,61.035,black
-81.055,23.438,38.086,-12.207,12.695,black
-7.324,25.879,34.18,10.254,17.09,black
52.734,28.32,29.785,43.457,20.508,black
-86.914,26.367,31.738,-9.277,31.25,black
-26.367,26.855,31.738,2.93,48.34,black
112.793,26.855,34.18,63.477,47.852,black
-52.246,26.855,36.133,-0.977,32.715,black
83.984,27.832,31.738,35.156,18.066,black
148.926,26.367,34.18,60.547,5.371,black
-84.961,26.855,30.273,-23.926,-9.277,black
37.109,28.809,30.273,15.625,-35.645,black
160.156,31.738,32.227,72.754,39.062,black
-86.426,31.738,32.715,-16.602,12.207,black
94.727,30.762,33.691,47.852,62.5,black
-53.711,31.738,33.203,-20.508,24.414,black
-49.316,30.273,31.738,-20.02,19.531,black
93.262,28.809,31.25,38.086,33.691,black
121.094,31.25,34.18,62.988,23.926,black
-49.805,32.715,35.156,4.395,44.434,black
-76.66,33.203,34.668,-10.742,17.578,black
58.105,35.645,35.156,37.598,-29.785,black
-3.906,37.598,32.227,19.043,14.16,black
-80.078,37.109,30.762,-17.09,45.898,black
24.902,33.691,31.738,16.113,18.555,black
45.41,32.227,34.18,45.41,28.32,black
-81.055,30.273,34.668,-9.766,-19.531,black
130.859,30.762,34.668,54.199,15.137,black
90.82,26.855,35.156,43.945,-25.391,black
-74.219,27.832,35.645,-20.02,-61.523,black
-61.523,28.32,35.645,-19.531,41.992,black
-27.344,30.273,33.203,-3.906,45.898,black
12.207,28.809,32.227,24.902,13.184,black
-91.309,29.785,32.227,-17.09,39.551,black
6.836,28.809,32.227,10.254,27.832,black
-25.391,30.762,34.668,-3.906,-28.32,black
134.766,31.738,35.156,55.176,-35.156,black
111.328,29.785,34.18,51.758,35.645,black
-55.664,30.273,32.227,-10.254,-3.906,black
84.961,28.809,32.715,35.645,3.906,black
130.859,29.297,35.645,64.453,61.035,black
-19.531,27.344,37.598,8.301,37.109,black
-69.336,24.902,38.574,-26.855,10.742,black
51.27,25.391,36.133,7.812,-11.23,black
162.109,27.832,32.715,53.711,12.207,black
-74.707,29.297,36.133,-16.113,53.711,black
146.973,29.297,34.18,51.758,52.734,black
-65.43,32.227,36.133,-17.09,-22.949,black
-28.809,30.273,38.086,-4.883,-16.113,black
123.535,28.809,38.086,49.805,69.824,black
125.488,30.273,35.645,55.664,80.566,black
-41.992,33.203,33.691,-2.441,-55.664,black
-57.617,32.715,32.715,-10.254,-48.34,black
1.953,34.18,32.715,15.625,24.414,black
-77.148,35.645,34.18,-14.16,58.105,black
159.18,35.156,31.25,63.965,50.781,black
-72.266,39.551,36.133,-16.602,15.137,black
-5.859,37.109,37.109,2.93,35.156,black
153.809,35.156,35.156,48.828,39.062,black
110.84,38.574,36.621,45.41,-0.977,black
-63.965,39.551,39.551,-11.23,4.395,black
-34.18,35.156,33.691,0,18.066,black
148.438,34.18,30.273,62.012,64.453,black
-27.344,31.25,35.156,-1.953,52.246,black
-71.777,32.227,32.227,-21.484,32.715,black
48.828,34.18,31.25,23.926,86.426,black
141.113,32.715,34.18,67.383,62.5,black
6.836,33.203,36.133,21.973,34.18,black
-72.754,33.203,34.18,-21.484,33.691,black
19.531,30.762,31.738,13.184,15.625,black
144.043,33.691,34.18,74.707,26.855,black
53.223,32.227,36.621,43.457,71.777,black
-29.297,34.18,40.039,5.859,43.457,black
132.324,37.109,38.574,51.758,32.227,black
-65.918,38.086,36.133,-22.949,-62.5,black
-57.617,36.133,36.621,-19.531,-51.758,black
92.773,36.621,32.227,31.738,32.715,black
132.812,38.086,32.715,54.199,60.059,black
-33.203,33.203,38.086,0,24.414,black
53.223,39.551,32.715,31.738,30.273,black
161.133,36.621,34.18,63.477,-1.953,black
30.762,37.109,34.18,11.23,12.207,black
17.09,37.598,37.109,9.277,67.383,black
149.414,36.621,40.039,67.871,75.195,black
-91.797,34.18,36.133,-14.16,-0.488,black
-39.551,32.715,34.668,-3.906,-6.836,black
106.934,36.621,33.691,56.641,83.008,black
-64.941,35.156,33.691,-5.859,1.465,black
-70.312,34.18,34.18,-12.695,-0.977,black
79.102,33.203,32.227,41.504,76.66,black
138.672,31.25,30.762,68.359,61.035,black
-24.414,30.273,33.203,18.066,6.836,black
-78.125,31.25,37.109,-14.648,1.953,black
156.738,35.156,32.227,58.594,-26.367,black
-94.238,37.109,34.18,-21.484,12.695,black
147.461,35.645,31.738,50.293,75.684,black
-75.195,35.645,35.156,-20.508,54.688,black
124.512,29.785,27.344,59.57,55.664,black
-51.27,29.785,31.25,-0.977,33.203,black
-73.242,31.25,32.715,-10.254,31.25,black
-1.465,32.227,28.809,11.719,37.598,black
-83.008,30.762,32.227,-19.531,-27.344,black
148.926,27.344,30.273,74.219,-28.809,black
40.039,28.809,32.715,45.898,7.324,black
-6.836,31.738,35.156,12.207,16.113,black
142.578,35.156,37.109,68.848,-7.324,black
95.703,31.25,35.645,56.641,3.906,black
-74.707,28.809,33.691,-2.93,-2.93,black
-54.199,30.273,31.25,-8.301,3.906,black
104.492,26.367,29.785,41.992,-26.855,black
134.766,25.391,31.25,62.5,-44.922,black
-28.809,27.344,32.227,4.395,-39.551,black
-62.5,29.297,30.762,-18.555,-90.332,black
53.711,32.227,26.855,30.273,-43.457,black
144.043,32.227,31.25,71.289,19.531,black
-85.938,32.715,33.203,-16.602,6.348,black
18.555,31.25,30.762,15.137,38.574,black
67.871,30.762,30.273,45.41,41.016,black
-70.312,30.762,29.785,0,18.555,black
-23.438,27.832,31.25,16.113,37.598,black
132.812,26.855,30.762,63.965,58.594,black
-65.918,33.203,34.18,-4.395,13.672,black
84.961,32.715,34.668,44.434,69.824,black
141.602,35.156,35.156,65.43,51.758,black
-19.531,34.18,35.156,14.16,12.695,black
-78.613,33.203,36.133,-11.23,21.973,black
42.969,33.691,34.18,28.32,47.852,black
-91.797,31.25,38.086,-21.484,41.016,black
0.977,34.18,35.645,9.766,-15.137,black
70.312,30.762,32.715,40.039,36.621,black
-39.551,31.738,35.156,-2.93,36.133,black
112.793,34.668,32.715,46.875,86.914,black
124.512,36.621,31.25,44.922,23.926,black
-48.34,34.668,37.109,-16.113,-65.43,black
149.902,33.691,36.621,67.383,-18.066,black
-8.789,34.668,40.039,17.578,-23.926,black
-83.008,31.738,41.016,-12.695,1.465,black
141.113,27.344,36.621,68.848,26.855,black
25.879,29.785,38.086,28.32,73.73,black
-26.855,31.25,35.156,-1.953,49.805,black
135.742,31.738,35.156,54.199,96.191,black
88.379,35.645,38.086,45.41,25.391,black
-76.172,35.645,39.062,-15.137,-26.855,black
-54.688,35.645,37.598,-5.859,-32.227,black
103.027,37.109,35.645,48.828,34.18,black
128.906,37.598,37.598,58.594,59.082,black
-41.016,38.574,38.086,5.371,23.926,black
-73.242,37.109,37.109,-11.23,-2.93,black
63.477,37.109,37.598,40.039,9.277,black
148.438,38.086,35.645,70.801,34.18,black
-95.215,39.062,38.086,-18.066,32.715,black
13.184,35.645,36.621,16.602,-38.086,black
60.547,38.086,35.645,42.48,39.551,black
-84.473,37.598,40.039,-9.277,36.133,black
-26.855,37.109,39.551,6.348,23.438,black
119.629,36.621,36.133,62.5,33.203,black
90.82,33.691,38.086,61.523,17.09,black
-67.383,35.645,38.086,-0.488,5.371,black
-58.594,36.621,34.18,3.418,53.223,black
145.996,35.156,34.668,69.824,10.254,black
-65.43,35.156,38.086,-12.695,31.738,black
50.781,30.762,35.156,16.113,85.938,black
156.25,31.738,35.645,52.246,30.762,black
-78.125,36.621,38.086,-24.414,7.812,black
5.371,35.645,35.645,4.883,-20.996,black
146.484,35.645,32.715,51.27,-26.367,black
69.824,33.691,33.203,26.367,4.883,black
-80.078,29.785,36.133,-17.578,-22.461,black
-33.691,30.273,34.668,-9.277,33.691,black
123.535,32.227,33.203,44.922,61.523,black
104.004,32.715,34.18,56.152,60.059,black
-67.383,31.25,32.715,-4.883,28.32,black
-68.848,28.809,33.203,-19.043,-2.441,black
142.09,34.668,33.203,65.918,-31.738,black
-16.113,34.18,35.156,13.672,17.578,black
-71.777,36.621,33.203,-9.277,-6.348,black
51.27,36.621,32.227,28.809,20.508,black
170.898,38.086,35.156,68.359,66.895,black
46.387,39.062,35.156,23.438,69.824,black
-77.637,33.691,32.227,-26.855,27.832,black
0.977,31.25,31.25,-2.441,12.207,black
146.484,31.738,29.785,50.293,52.734,black
73.242,33.203,32.715,35.645,44.922,black
-77.148,33.691,35.645,-20.508,24.414,black
-33.203,35.156,31.738,-11.719,11.719,black
122.559,34.18,30.273,56.152,83.496,black
-52.246,32.715,35.645,2.93,12.207,black
-63.477,31.738,35.645,-6.348,-58.105,black
74.219,29.297,33.691,43.457,-42.969,black
148.438,31.25,32.227,70.801,4.395,black
-3.418,31.25,34.18,12.695,7.812,black
-83.496,29.297,37.109,-20.996,-1.953,black
20.508,30.273,34.668,14.16,28.32,black
153.32,30.762,35.156,63.965,53.223,black
42.969,33.691,37.109,36.133,38.574,black
-81.543,34.668,33.691,-6.348,19.531,black
99.121,34.668,32.227,51.758,64.453,black
-55.176,32.227,34.18,-8.789,29.785,black
-45.41,31.738,35.645,-14.16,19.043,black
105.957,33.203,34.668,39.062,61.523,black
138.672,28.809,32.715,52.734,37.598,black
-31.738,28.809,34.668,-1.953,28.809,black
-67.871,29.297,36.621,-16.113,47.852,black
56.641,24.414,34.668,28.32,58.105,black
7.324,30.273,32.227,11.23,14.648,black
8.789,28.32,30.762,1.465,13.672,black
141.113,26.855,30.762,53.223,27.344,black
-78.613,32.715,34.668,-13.184,14.648,black
-25.391,32.227,32.715,-5.859,18.066,black
104.492,31.25,34.668,48.828,-23.926,black
-68.359,30.273,35.156,-16.113,-8.301,black
-60.059,27.832,34.668,-12.695,48.828,black
90.82,29.297,30.273,44.434,39.551,black
-14.648,31.738,32.715,11.719,9.766,black
-66.895,34.18,32.715,-6.348,17.09,black
158.691,30.762,28.809,72.266,61.523,black
26.367,33.691,33.203,31.738,81.543,black
-79.102,33.203,35.645,-12.207,38.574,black
11.23,34.18,32.227,10.254,18.555,black
161.133,33.203,30.762,65.918,12.695,black
79.59,33.691,30.762,45.898,37.109,black
-82.52,35.156,30.273,-10.742,54.688,black
-49.805,32.715,33.203,-2.93,28.809,black
116.699,29.785,33.691,50.781,12.695,black
125,31.738,33.691,56.641,20.508,black
-61.035,29.785,33.691,-7.324,-2.93,black
86.914,29.785,32.715,37.109,-13.672,black
156.738,29.785,30.273,67.383,44.922,black
-6.836,29.785,33.691,19.043,54.688,black
-66.406,32.227,35.156,-7.812,62.988,black
42.969,34.668,32.227,32.715,23.926,black
32.715,32.227,31.738,41.504,-33.203,black
-76.66,31.25,34.18,-9.766,-31.25,black
1.953,27.832,32.715,2.93,-12.207,black
148.438,32.227,29.297,59.082,9.277,black
88.867,35.645,29.785,44.922,22.461,black
-69.336,31.25,29.297,-14.648,47.852,black
-42.48,26.855,30.762,-6.836,93.262,black
109.863,28.32,31.738,57.129,38.574,black
125.977,28.809,32.715,72.266,-11.23,black
-37.598,29.785,33.691,12.207,41.016,black
-59.082,32.227,31.25,-2.441,53.711,black
79.102,29.297,31.738,35.645,-13.672,black
159.18,28.32,31.738,63.965,-5.371,black
-0.977,34.18,33.203,20.508,63.965,black
-81.543,33.203,36.133,-13.672,35.156,black
20.508,33.203,31.738,23.438,32.715,black
48.34,33.691,33.691,34.18,-38.086,black
-87.402,33.203,32.715,-19.531,-36.621,black
-14.16,31.738,32.227,3.418,-38.574,black
140.625,29.785,33.691,67.871,-35.645,black
98.633,32.227,34.18,59.57,8.301,black
-65.918,34.668,37.598,1.953,10.742,black
137.695,31.738,34.18,75.684,29.785,black
-29.297,34.668,37.109,21.973,-3.906,black
-69.336,33.691,38.574,1.465,-21.484,black
61.523,34.18,35.645,42.969,-11.719,black
155.762,36.621,31.25,70.801,-16.113,black
21.973,32.715,33.691,27.832,25.879,black
-72.754,33.691,33.691,-3.418,-5.859,black
21.484,37.109,31.25,20.508,8.789,black
172.363,36.133,33.203,67.383,38.086,black
83.984,34.668,34.18,44.434,0,black
-63.965,33.691,33.691,-4.395,-15.137,black
-15.625,34.18,34.18,10.254,-4.395,black
127.93,32.227,35.156,68.848,26.367,black
104.492,29.297,34.668,66.895,46.387,black
-67.383,30.273,37.598,9.277,-7.324,black
80.566,30.273,37.109,52.734,-56.152,black
145.02,34.18,35.645,57.617,-51.758,black
-15.137,32.715,33.691,-4.395,-7.812,black
-69.336,34.18,33.691,-23.438,30.273,black
156.738,34.18,33.203,68.848,74.707,black
21.484,32.227,34.668,28.809,0,black
-77.148,32.227,35.156,-20.996,-27.344,black
143.066,29.297,33.691,63.965,40.039,black
72.754,27.344,33.691,41.992,89.355,black
-86.914,25.391,36.621,-18.555,77.148,black
-46.387,29.297,33.691,-10.254,48.828,black
126.465,33.691,31.738,54.199,-1.953,black
-62.988,31.738,34.18,-22.461,12.207,black
137.207,31.738,36.133,64.941,30.273,black
-17.578,34.18,33.691,16.602,62.5,black
-84.961,33.203,36.133,-10.254,71.289,black
32.227,31.738,31.738,23.438,57.129,black
161.133,31.738,26.855,64.941,22.461,black
-3.906,29.785,33.203,2.441,-1.953,black
142.578,30.762,33.691,59.57,23.926,black
92.773,32.715,32.227,49.805,95.215,black
-72.266,31.25,35.645,-12.207,42.48,black
-43.457,30.762,35.156,-2.441,41.504,black
101.562,33.203,32.227,52.246,79.102,black
-39.062,31.25,37.598,1.465,-3.418,black
52.246,32.715,36.133,28.32,-8.789,black
142.578,27.832,33.691,64.453,6.836,black
2.441,29.785,29.785,22.461,-10.254,black
10.254,29.297,34.18,19.531,-18.555,black
140.625,28.32,33.691,71.777,17.578,black
35.645,30.273,35.156,36.621,63.965,black
-98.633,30.273,34.668,-16.113,84.473,black
-29.297,31.738,34.668,-0.488,69.824,black
128.418,35.156,34.18,59.57,108.887,black
92.773,32.715,38.086,63.477,93.75,black
-73.73,31.738,37.109,-8.301,8.301,black
-47.363,34.18,32.227,-14.648,-17.578,black
105.957,33.691,33.203,44.922,-26.855,black
145.508,34.18,35.156,63.965,42.969,black
-15.137,33.691,35.156,7.812,82.031,black
-65.43,32.715,32.227,-11.719,20.02,black
48.34,34.668,33.203,34.18,-32.715,black
148.438,34.668,33.691,75.684,12.207,black
-87.891,33.203,33.691,-15.137,25.879,black
-5.371,26.367,35.645,5.859,-0.977,black
135.742,22.949,36.133,61.035,20.508,black
57.129,24.414,38.574,51.27,59.082,black
-91.797,26.855,38.086,-9.766,-8.789,black
-44.922,28.32,34.18,-14.648,-26.367,black
111.328,29.297,34.18,46.875,62.5,black
109.863,31.25,33.203,49.805,53.711,black
-53.711,32.715,33.691,-6.836,25.879,black
-61.035,29.297,33.691,-11.23,19.531,black
70.801,27.832,32.227,36.133,29.297,black
131.348,28.809,32.715,61.523,53.223,black
-29.297,28.809,33.691,13.672,-3.906,black
-102.539,28.32,33.691,-18.066,-21.973,black
23.926,30.273,34.668,12.207,19.043,black
153.809,32.227,35.645,62.988,60.547,black
-65.43,35.645,35.156,-21.973,11.719,black
8.301,35.645,36.621,-1.465,10.254,black
153.32,37.598,35.645,62.012,39.062,black
87.402,35.156,36.621,49.805,0.488,black
-78.125,34.18,34.668,-11.719,-6.348,black
-47.852,33.203,31.738,-6.836,-2.93,black
107.91,34.18,32.227,48.828,19.531,black
123.047,37.598,32.715,49.316,18.555,black
-45.41,39.062,35.156,-5.859,27.832,black
-71.777,38.086,33.691,-20.508,25.391,black
74.219,37.109,32.715,21.973,32.227,black
158.203,37.109,32.715,66.895,60.547,black
3.418,34.18,35.156,18.555,71.777,black
163.574,31.738,35.156,68.848,-5.859,black
-79.102,34.18,35.645,-5.371,29.297,black
-0.488,34.18,33.691,5.859,-11.719,black
154.297,32.715,33.691,62.012,-51.758,black
-53.711,28.809,32.227,-7.812,17.09,black
100.586,31.25,29.785,45.41,32.227,black
145.508,34.18,29.297,65.43,28.32,black
-24.414,34.668,30.762,4.883,33.203,black
-71.289,34.668,29.785,-19.043,5.859,black
59.082,32.227,25.879,29.785,63.477,black
143.066,30.762,27.344,64.453,102.051,black
-8.789,32.227,32.227,19.531,89.355,black
-88.867,35.645,32.715,-16.602,51.27,black
15.137,34.668,28.809,9.277,47.852,black
158.203,30.762,26.855,60.059,53.223,black
70.801,30.762,30.273,35.156,16.602,black
-67.871,33.203,30.762,-11.719,-18.555,black
-19.043,33.691,27.832,13.672,-20.508,black
123.535,31.738,31.25,68.848,-5.859,black
-58.105,35.156,31.738,-12.207,-13.672,black
84.961,33.691,27.832,41.504,51.27,black
131.348,35.156,31.25,68.359,32.715,black
-83.008,30.762,32.227,-27.832,41.992,black
49.316,32.715,29.297,15.137,22.949,black
167.48,33.203,27.344,59.57,17.578,black
40.527,35.645,29.785,15.625,70.312,black
144.531,34.668,29.297,64.453,6.348,black
65.918,36.133,32.227,51.758,18.066,black
-44.434,35.645,33.691,0.488,13.672,black
113.77,36.133,34.668,54.199,41.016,black
111.816,38.086,35.156,63.965,37.598,black
-62.012,37.109,31.738,0.977,-10.742,black
145.996,35.156,31.738,69.824,86.426,black
-18.066,35.156,31.25,12.695,20.508,black
-88.867,34.18,31.25,-17.578,-10.742,black
37.109,32.715,33.203,23.438,12.695,black
158.203,35.645,32.715,73.242,-27.344,black
-89.844,31.738,37.598,-8.301,-3.906,black
132.812,31.738,30.762,60.547,21.973,black
85.449,31.25,35.645,49.316,1.953,black
-69.336,33.691,37.109,-11.23,26.367,black
-43.945,33.691,38.574,-3.906,19.531,black
-42.48,35.645,38.086,1.953,26.855,black
-69.336,36.133,40.527,-7.812,51.27,black
67.383,32.227,39.062,35.645,51.27,black
-76.172,33.203,37.598,-22.949,17.578,black
22.461,31.738,38.574,2.441,0.488,black
152.832,32.715,37.109,56.152,20.02,black
53.223,34.18,35.156,29.297,27.344,black
-78.613,35.156,35.156,-20.02,34.18,black
-23.438,33.691,35.156,-6.348,23.926,black
124.023,29.785,35.645,50.781,32.227,black
85.449,28.809,35.645,52.246,26.855,black
-85.938,30.762,32.227,-8.301,27.344,black
-69.824,31.25,31.25,-17.09,3.418,black
84.473,32.227,32.715,39.062,-45.41,black
126.465,33.691,34.18,62.5,-28.809,black
-37.598,28.809,37.598,7.324,-3.906,black
-76.66,22.949,35.645,-20.996,13.672,black
58.105,26.855,32.227,17.09,32.227,black
161.621,30.762,33.203,59.082,10.254,black
-76.172,22.461,34.668,-19.043,55.176,black
15.625,33.203,32.227,9.766,62.988,black
159.668,39.062,31.738,59.082,85.938,black
-63.965,37.598,36.133,-16.113,26.855,black
-22.461,35.645,33.691,-4.395,-4.883,black
131.836,35.156,33.203,42.48,17.09,black
108.887,37.109,31.25,43.457,29.297,black
-65.918,36.621,34.18,-3.418,12.695,black
-72.754,34.18,35.645,-9.277,9.766,black
72.266,31.25,33.203,34.668,24.902,black
-24.414,30.762,36.133,9.766,9.277,black
45.41,32.227,35.645,31.25,-2.93,black
166.504,33.203,35.156,67.871,-14.16,black
-70.312,35.156,36.133,-7.812,4.395,black
8.789,34.18,34.668,9.766,30.762,black
152.832,31.25,32.227,58.594,57.617,black
82.031,32.715,30.273,37.109,27.344,black
-73.242,32.227,33.691,-16.113,28.32,black
-37.598,31.25,34.668,-0.977,12.207,black
130.859,28.809,30.762,61.035,72.754,black
-37.598,29.297,34.668,-1.953,99.121,black
-60.059,29.297,35.645,-15.625,57.129,black
71.777,26.855,33.203,37.598,23.438,black
-7.812,22.461,34.18,19.043,26.855,black
20.02,25.879,33.691,23.438,-49.805,black
147.461,26.367,32.715,74.219,17.09,black
42.969,28.32,31.25,36.621,19.531,black
-75.684,33.691,31.25,-16.113,29.785,black
-4.395,29.785,32.715,-2.93,58.105,black
140.625,26.367,30.762,54.199,63.477,black
98.145,29.297,32.227,50.293,41.992,black
-68.848,28.809,31.25,-8.301,-13.672,black
-49.316,28.32,25.879,-14.16,8.789,black
107.422,31.25,28.32,37.109,31.25,black
128.418,32.227,30.273,55.176,15.625,black
-39.062,31.25,31.25,0,20.02,black
54.199,34.18,30.273,29.785,29.785,black
145.996,35.645,29.297,65.918,67.871,black
-77.148,33.203,34.668,-19.531,12.695,black
18.066,32.227,31.738,6.348,112.305,black
153.809,34.18,31.738,62.012,76.66,black
55.664,34.668,31.738,32.227,0.977,black
-86.426,36.621,32.715,-23.926,2.93,black
-25.391,36.621,29.785,-8.301,37.598,black
127.93,34.668,29.297,53.223,83.496,black
96.191,35.156,32.715,53.711,92.285,black
-66.895,32.715,33.203,-10.742,37.109,black
-58.594,34.18,34.668,-13.184,-21.484,black
36.133,29.785,36.621,30.273,-2.93,black
151.855,31.738,33.203,71.289,-8.301,black
24.414,33.691,35.156,25.879,56.641,black
-83.008,32.227,35.156,-25.879,37.109,black
10.254,31.738,34.668,0,-22.949,black
146.484,32.227,36.621,60.547,17.09,black
66.895,31.738,38.086,45.898,33.691,black
115.723,32.715,38.086,63.477,10.254,black
123.047,33.203,37.109,62.988,-4.395,black
-37.109,38.086,36.621,0.977,-24.902,black
83.008,35.156,35.645,48.828,4.883,black
-16.602,33.203,39.062,23.438,72.266,black
-84.961,34.18,36.133,-3.418,27.832,black
146.973,34.668,37.598,73.242,29.297,black
32.715,31.25,37.598,27.344,49.316,black
-77.148,32.715,38.574,-17.09,19.043,black
-0.977,36.133,37.598,17.578,30.762,black
146.973,35.645,38.086,65.43,4.395,black
89.844,39.062,36.133,45.41,-55.176,black
-65.918,40.527,36.621,-15.625,26.367,black
-40.039,40.527,38.574,-13.672,33.691,black
104.004,36.621,36.621,40.039,-23.926,black
-43.945,36.133,35.645,-5.859,-57.129,black
-73.242,35.156,35.156,-16.602,30.273,black
67.383,30.762,33.691,27.344,51.27,black
157.227,21.973,31.25,60.547,45.41,black
10.742,25.391,30.273,14.16,45.41,black
-63.965,34.668,30.273,-16.602,58.594,black
42.48,41.016,31.25,19.531,41.016,black
163.574,44.434,32.227,66.406,40.527,black
-91.797,38.574,32.715,-15.137,13.184,black
-30.762,34.18,34.18,-3.906,-31.25,black
122.07,34.668,33.691,49.805,0,black
90.82,39.551,33.203,43.945,76.172,black
-62.012,39.062,37.109,-7.812,20.996,black
-44.922,35.156,36.133,-1.465,-25.879,black
100.098,33.691,33.691,50.781,0,black
133.301,33.691,34.668,62.5,57.617,black
-71.777,34.18,31.738,-20.02,-20.02,black
148.926,28.809,34.18,65.43,-2.441,black
8.301,31.25,31.25,19.531,-39.551,black
18.066,36.133,34.668,2.93,26.855,black
158.691,36.133,32.227,60.059,23.926,black
67.871,35.156,33.691,38.086,10.254,black
-73.73,33.203,32.715,-18.555,-25.879,black
-28.32,35.645,31.25,-7.812,-31.25,black
105.957,36.133,32.227,46.387,18.066,black
-56.152,37.598,37.109,-3.418,-30.273,black
-58.105,40.527,33.691,-5.859,-46.387,black
87.891,36.621,32.227,46.387,16.113,black
145.02,35.645,32.227,73.242,45.41,black
-19.531,35.645,31.738,18.066,15.625,black
51.27,33.691,33.203,34.18,64.941,black
-79.102,32.227,35.156,-25.391,32.227,black
4.395,28.809,34.668,2.441,42.48,black
143.066,29.297,33.203,54.199,41.992,black
78.125,32.715,34.668,34.18,51.758,black
-29.785,29.785,33.691,-2.441,16.113,black
113.281,34.18,32.715,48.828,11.23,black
76.172,31.738,35.645,38.086,53.711,black
-83.496,29.785,36.621,-29.297,57.129,black
148.926,30.273,33.203,64.453,-22.461,black
30.762,27.832,34.668,23.926,21.484,black
-82.031,24.414,32.715,-24.414,52.246,black
-11.23,27.832,30.273,2.441,69.336,black
139.16,30.762,31.738,59.082,86.426,black
90.82,32.227,34.18,43.457,47.852,black
-73.242,32.227,36.133,-18.066,14.16,black
-53.223,32.715,36.621,-13.184,11.23,black
107.91,32.715,37.598,49.805,-8.789,black
145.996,32.715,40.527,66.895,14.648,black
-58.594,32.227,36.133,-10.254,-5.859,black
68.359,32.227,36.621,36.133,9.766,black
160.156,32.227,37.109,68.848,8.789,black
-80.566,35.645,38.086,-20.508,65.43,black
12.695,31.25,37.598,14.648,20.996,black
145.996,32.715,32.227,64.941,43.457,black
51.758,33.691,33.691,36.621,24.414,black
-92.773,30.273,35.156,-18.066,3.418,black
-36.621,29.297,35.645,-5.859,19.043,black
122.07,30.762,34.668,55.664,39.551,black
86.426,31.25,33.691,51.758,37.109,black
-61.035,32.715,35.156,0.488,-8.789,black
98.633,34.18,31.25,45.898,7.812,black
140.137,34.668,30.762,62.988,-20.508,black
-30.273,34.18,34.18,3.906,-53.711,black
58.594,36.133,38.574,26.855,14.16,black
25.879,33.691,39.062,22.461,-6.836,black
-83.496,36.133,43.457,-15.625,2.441,black
3.906,36.133,41.016,11.23,-18.066,black
146.973,34.668,41.992,62.012,26.855,black
75.684,37.598,40.039,38.574,20.02,black
-19.531,37.598,38.574,3.418,36.133,black
139.16,36.621,36.133,57.617,55.664,black
132.812,38.574,36.621,66.406,-19.043,black
-40.527,40.527,37.598,11.719,18.555,black
-50.293,38.086,35.156,4.395,71.777,black
94.727,36.133,34.668,49.805,38.086,black
-79.102,36.621,40.527,-10.254,-18.555,black
152.832,33.691,40.527,68.359,54.688,black
26.367,35.645,37.598,36.621,29.785,black
6.348,37.109,33.691,-4.883,28.809,black
152.832,35.156,33.203,51.27,107.422,black
87.891,33.203,36.133,37.109,61.035,black
-57.617,27.832,35.156,-11.719,23.926,black
95.703,29.785,32.715,44.922,51.758,black
112.793,31.25,33.203,57.617,32.227,black
-51.27,31.25,39.062,-0.488,15.137,black
-68.848,31.25,35.645,-15.625,-0.488,black
71.777,34.18,30.273,33.691,-14.648,black
144.043,35.156,31.738,70.801,37.109,black
-5.371,33.691,34.668,21.484,44.434,black
-74.219,35.156,36.133,-15.137,-4.395,black
150.879,32.227,32.715,72.266,46.875,black
-71.289,32.715,33.203,-1.953,3.906,black
-13.672,31.25,36.133,8.301,2.93,black
120.117,31.738,35.645,56.641,-18.066,black
85.449,30.273,36.621,58.105,50.781,black
-75.684,29.297,38.086,-17.09,52.734,black
-56.152,32.715,35.156,-23.926,-49.316,black
123.535,35.156,33.203,32.715,7.324,black
149.414,35.645,34.668,66.406,31.25,black
2.93,37.109,37.109,20.02,89.844,black
-83.008,37.598,39.551,-20.996,94.727,black
12.695,35.156,37.598,5.859,45.898,black
50.781,33.203,33.691,21.973,11.23,black
-85.449,31.738,30.762,-27.832,-28.809,black
-29.785,29.297,28.809,-2.93,39.062,black
128.906,29.297,27.344,51.27,51.27,black
111.816,31.738,29.297,50.293,37.109,black
-57.617,31.25,32.715,-13.184,50.781,black
87.891,33.203,30.762,42.969,15.625,black
138.184,32.715,31.738,71.777,38.574,black
-28.32,33.203,35.156,15.625,42.969,black
50.781,33.691,28.809,33.203,-47.363,black
-89.355,32.227,32.227,-19.531,-3.418,black
1.465,32.227,29.785,-1.465,-20.02,black
147.461,34.18,28.32,60.059,58.594,black
64.453,33.203,31.738,43.457,57.617,black
-33.691,34.18,31.738,-6.348,35.156,black
117.188,35.156,30.762,43.945,2.93,black
122.559,39.062,34.18,61.035,-0.977,black
-47.852,36.621,36.133,3.906,-18.555,black
-68.359,31.738,35.645,-4.395,0,black
77.637,32.715,34.18,44.922,-14.16,black
-11.23,27.832,33.691,16.113,54.199,black
31.738,26.367,38.574,33.203,-7.324,black
164.062,28.809,39.062,74.219,28.809,black
45.898,31.738,42.48,41.504,22.461,black
-76.66,31.25,40.039,2.441,-18.555,black
149.902,29.785,39.062,63.477,50.781,black
103.027,29.785,39.551,59.082,33.203,black
-63.965,28.809,38.574,-1.465,56.152,black
-33.203,27.344,37.598,-0.488,41.016,black
120.117,28.809,34.668,51.758,34.668,black
-44.434,34.668,36.621,4.395,17.09,black
-70.312,32.227,35.645,-8.301,43.457,black
145.508,28.32,38.086,75.684,74.219,black
0.488,29.785,38.086,25.879,-28.809,black
-70.312,30.273,36.133,-16.113,-48.34,black
36.133,29.785,36.621,17.09,45.898,black
157.715,30.273,35.645,60.547,-14.648,black
-26.367,28.32,31.738,3.906,-8.789,black
97.656,31.25,31.25,52.734,95.703,black
-61.035,30.762,32.715,-12.695,26.367,black
-47.852,31.25,34.18,-20.02,5.859,black
98.145,30.762,34.18,37.109,81.055,black
141.113,29.785,35.156,68.359,57.617,black
-21.484,28.809,36.621,16.113,26.367,black
-65.918,28.809,35.156,-14.16,8.301,black
55.176,28.32,34.668,24.902,20.508,black
140.625,30.273,35.645,63.477,23.438,black
5.859,31.25,36.133,20.02,13.184,black
-79.59,33.691,33.691,-15.137,4.883,black
153.809,33.691,29.785,57.129,55.176,black
73.73,33.203,29.785,31.738,53.711,black
-76.66,32.715,32.715,-21.484,15.625,black
-30.273,34.668,32.715,-13.672,-46.387,black
124.023,33.691,29.785,41.016,-43.457,black
113.281,31.738,31.25,46.387,-33.203,black
-50.293,34.18,33.203,-12.695,-42.48,black
80.078,32.227,32.715,39.551,-31.25,black
146.973,33.203,33.691,65.43,3.906,black
-8.789,35.156,36.133,20.02,120.117,black
-73.242,33.691,37.598,-13.184,83.496,black
38.086,31.738,38.086,20.02,23.438,black
151.367,32.227,39.062,66.406,4.883,black
30.273,32.227,39.062,23.926,5.859,black
-84.473,33.203,36.621,-25.391,52.734,black
142.578,34.18,34.18,60.547,-2.441,black
79.102,34.668,36.621,41.504,11.23,black
-77.148,33.691,38.574,-8.789,-3.418,black
-56.641,31.25,32.227,-5.371,-6.348,black
96.68,29.297,32.227,51.758,2.93,black
-62.5,36.133,39.551,-4.883,-1.953,black
-62.5,33.691,35.645,-18.066,-5.371,black
71.777,31.25,31.25,36.133,4.883,black
135.254,29.785,32.227,60.059,-5.371,black
-2.441,33.203,33.203,11.23,19.531,black
-69.336,34.668,35.645,-12.207,50.293,black
33.203,32.715,34.18,23.438,57.617,black
160.645,31.738,31.25,68.848,92.285,black
50.293,32.227,37.598,32.227,62.988,black
-80.566,32.715,37.598,-17.578,27.344,black
99.609,31.25,36.621,47.363,78.613,black
92.285,28.809,36.133,40.527,-21.484,black
134.766,31.738,38.086,55.664,12.695,black
-30.273,31.738,34.668,1.953,42.48,black
-73.73,27.344,33.691,-19.043,17.578,black
66.895,27.832,35.156,31.738,33.691,black
160.645,32.227,32.715,71.289,31.738,black
9.277,33.203,36.133,18.066,10.254,black
-77.637,33.691,32.227,-23.926,16.113,black
19.043,37.109,24.902,6.348,21.973,black
-84.473,31.738,30.273,-17.09,-29.785,black
-24.414,32.715,30.762,-3.906,-42.48,black
135.254,33.203,31.25,59.57,13.184,black
100.098,35.156,32.715,58.594,13.672,black
-68.359,34.18,35.156,-5.859,-45.41,black
-58.105,33.691,33.691,-10.742,6.836,black
92.773,32.715,29.297,40.039,43.457,black
135.742,32.715,28.809,59.082,63.965,black
-35.645,32.715,34.18,5.371,20.996,black
-68.359,33.691,34.18,-12.207,0,black
48.828,32.715,30.273,27.832,43.457,black
142.09,31.25,31.738,63.477,15.625,black
31.738,34.668,36.621,19.043,11.23,black
-65.918,37.109,36.133,-21.484,18.555,black
7.324,33.691,33.203,5.371,15.625,black
150.391,31.25,33.203,60.059,33.203,black
70.801,33.691,33.691,34.18,18.555,black
-80.566,32.227,31.25,-17.09,17.578,black
111.328,31.25,32.227,44.922,9.277,black
-59.57,30.762,35.156,6.836,26.855,black
-61.035,29.785,36.133,-5.371,31.25,black
83.984,27.344,34.668,44.434,22.461,black
-7.812,29.297,37.109,17.578,-20.508,black
-68.359,27.344,35.645,-8.789,-14.16,black
157.227,25.879,29.785,65.918,14.16,black
-70.801,29.785,32.715,-11.23,39.062,black
-0.977,29.297,30.273,9.277,6.348,black
145.02,29.785,29.297,62.988,2.441,black
93.75,30.273,29.785,37.109,11.719,black
-64.453,28.32,30.762,-21.484,-12.207,black
-39.551,29.785,29.785,-13.672,-16.602,black
111.816,29.297,28.809,38.574,47.363,black
126.465,29.297,29.297,44.434,76.172,black
-35.645,33.691,27.344,-17.578,20.02,black
-56.641,34.18,30.273,-26.855,-17.578,black
71.289,31.25,32.227,23.926,26.367,black
147.949,31.25,29.785,57.129,72.266,black
19.043,25.879,34.668,10.254,32.227,black
152.344,25.879,36.133,64.453,-3.906,black
50.293,29.297,34.668,38.086,-16.602,black
-71.289,30.762,33.203,-26.855,63.965,black
102.051,32.227,37.109,56.152,54.199,black
-54.688,33.691,37.598,-5.859,35.645,black
-46.387,33.691,34.668,-4.883,69.824,black
128.418,29.785,35.645,71.777,19.043,black
-37.598,32.715,38.574,18.066,82.031,black
-73.242,36.133,36.621,-4.395,-26.367,black
152.832,29.297,38.574,66.406,17.578,black
27.832,36.133,40.527,24.902,32.715,black
-72.754,35.645,37.109,-14.648,42.969,black
8.789,32.227,34.668,10.742,56.152,black
147.461,33.691,32.227,66.406,42.48,black
60.059,32.227,33.203,44.434,20.02,black
-28.809,36.133,31.25,12.207,19.043,black
127.93,35.156,28.809,62.5,-0.488,black
117.676,34.18,30.762,54.199,11.719,black
-48.34,36.133,33.691,-6.836,18.555,black
88.867,34.18,33.691,41.016,-1.953,black
134.277,31.25,32.715,69.336,54.688,black
-21.973,31.25,31.738,15.137,32.715,black
-66.895,35.156,33.691,-9.277,-33.691,black
19.043,31.25,37.109,23.926,-1.953,black
-8.301,31.25,36.621,-0.488,-8.789,black
139.648,31.25,37.598,60.059,-4.883,black
73.73,33.203,37.598,49.316,56.641,black
118.652,33.203,33.691,50.293,-0.977,black
120.605,36.133,36.133,52.246,-6.348,black
-56.641,34.668,38.086,-12.695,-12.695,black
78.613,34.668,39.062,53.711,37.598,black
-5.859,31.738,40.527,17.578,26.367,black
-77.637,31.25,37.598,-20.996,-25.879,black
30.762,31.738,35.156,11.719,14.648,black
37.598,27.832,36.621,35.645,82.031,black
-85.938,29.785,37.598,-14.16,61.035,black
-13.672,31.25,37.598,15.137,43.945,black
93.75,35.156,33.203,46.875,53.711,black
-68.848,36.133,34.668,-10.742,57.617,black
106.445,35.156,36.133,58.594,84.961,black
143.066,36.133,36.133,67.871,81.543,black
-30.762,37.598,35.156,2.441,-24.902,black
-72.754,37.109,35.645,-8.789,16.113,black
55.664,37.109,37.109,37.109,-9.766,black
155.762,37.598,33.691,73.242,-19.043,black
25.879,37.109,33.203,28.809,-12.695,black
-62.988,36.621,34.18,-10.254,-63.965,black
162.109,37.109,32.715,61.523,54.199,black
59.082,38.086,34.668,43.457,64.453,black
-78.125,36.621,34.18,-7.324,47.852,black
133.301,36.133,34.18,60.547,11.23,black
-56.152,37.109,35.156,-6.836,25.879,black
90.332,37.109,31.738,41.992,19.043,black
-31.738,35.156,32.715,6.836,7.812,black
-64.453,34.668,32.715,-13.184,-36.133,black
51.758,30.273,32.715,25.391,25.391,black
142.578,29.297,35.156,73.242,1.465,black
8.789,29.785,36.621,28.809,-21.973,black
-92.285,27.344,36.133,-15.137,50.781,black
-5.859,27.344,34.668,16.113,42.48,black
137.695,27.832,38.086,66.895,-34.668,black
69.824,31.25,41.016,43.457,-26.855,black
-63.477,32.715,36.621,-11.23,44.434,black
-26.855,30.273,33.691,-1.465,54.199,black
117.188,30.762,34.18,53.223,56.641,black
112.793,32.715,34.668,60.059,91.309,black
-54.199,36.133,34.18,2.93,61.035,black
-57.129,37.598,32.227,-13.672,53.223,black
2.441,39.551,33.203,15.137,31.738,black
-65.918,37.109,34.668,-15.625,56.641,black
46.387,36.133,36.621,30.273,18.555,black
161.133,37.109,36.133,81.543,34.18,black
43.457,38.574,37.109,45.41,70.312,black
-7.812,33.691,35.156,11.719,-39.062,black
89.355,32.227,33.691,57.617,24.414,black
-36.133,36.133,32.715,-5.859,16.602,black
132.812,33.203,35.645,64.941,31.738,black
-65.43,34.18,34.668,-14.16,42.969,black
67.383,33.691,34.18,33.203,10.254,black
144.531,33.203,34.668,69.824,-6.836,black
-7.812,34.668,34.18,24.902,-3.906,black
21.973,31.738,36.621,18.066,80.078,black
144.531,33.203,33.691,70.312,96.191,black
43.457,36.133,33.203,38.574,8.789,black
-75.195,34.18,31.25,-16.602,-15.625,black
-6.836,32.715,31.738,-4.883,30.273,black
137.695,31.25,31.25,49.316,9.277,black
-75.195,29.297,34.668,-13.184,59.57,black
-54.199,30.762,33.203,-12.207,-29.297,black
86.914,33.203,34.18,34.668,-6.836,black
120.117,35.156,33.691,49.805,19.531,black
-38.086,35.156,32.227,-2.441,19.531,black
69.824,30.762,32.715,16.113,11.719,black
154.297,29.297,33.691,63.477,35.645,black
1.465,30.762,34.18,20.508,33.203,black
-91.309,32.715,33.203,-20.508,36.133,black
11.23,32.715,30.762,15.625,70.312,black
145.996,31.25,31.738,73.73,44.434,black
59.082,33.203,35.645,44.922,2.441,black
-74.219,34.18,35.645,-6.836,-2.441,black
-27.832,31.25,37.598,8.301,30.762,black
126.465,33.203,35.645,55.664,1.465,black
107.422,34.668,33.691,52.734,25.391,black
-52.246,34.18,35.156,-0.488,20.02,black
-41.992,38.086,34.668,-3.906,-32.227,black
101.562,36.621,35.156,49.805,12.207,black
-11.23,36.621,35.156,23.926,29.297,black
-62.988,34.18,36.133,-2.441,16.602,black
36.133,33.203,38.574,25.879,6.836,black
-79.59,31.738,41.504,-16.602,-28.809,black
4.395,34.18,40.039,11.719,2.441,black
144.043,32.227,39.551,60.547,13.184,black
102.539,34.18,37.598,51.758,28.32,black
103.516,36.133,36.133,57.617,24.414,black
-67.383,31.738,37.598,-11.719,2.93,black
69.336,30.762,38.086,38.086,4.395,black
-85.449,30.273,33.691,-12.695,22.949,black
20.508,30.762,32.227,26.855,18.066,black
147.949,33.203,32.715,66.895,44.434,black
-5.859,34.668,35.156,6.348,-48.828,black
147.461,33.203,36.133,64.453,5.859,black
98.145,33.691,37.598,53.711,53.223,black
-60.059,36.133,39.062,1.465,72.266,black
-29.785,32.715,38.086,3.906,28.809,black
142.578,31.738,37.109,71.289,17.09,black
-31.738,31.25,39.062,17.09,77.148,black
-66.895,30.762,39.062,-5.859,58.594,black
62.012,31.738,36.621,33.691,17.09,black
153.809,30.762,36.133,68.359,0.977,black
6.348,30.762,39.551,19.531,-18.066,black
36.621,32.227,41.504,19.043,33.203,black
167.48,33.691,39.551,59.082,58.594,black
-77.637,28.809,38.086,-22.949,-8.301,black
-36.133,28.809,38.086,-4.883,37.598,black
110.352,29.297,38.086,51.27,83.496,black
81.055,31.738,37.109,38.086,16.113,black
-83.496,35.645,36.621,-29.297,-43.945,black
-65.43,35.645,40.039,-26.855,-15.137,black
129.883,37.598,31.25,52.734,70.312,black
-31.25,38.086,34.18,4.883,60.547,black
-68.848,37.598,35.156,-11.23,18.555,black
59.082,41.504,33.691,33.691,15.137,black
160.645,42.48,33.203,76.172,70.312,black
21.484,40.527,35.156,35.156,24.902,black
-79.59,37.598,36.621,-9.277,13.672,black
76.66,35.156,37.598,44.434,-9.766,black
-67.383,34.668,34.668,-7.812,13.184,black
-20.02,34.18,34.668,5.371,12.695,black
116.699,37.109,36.133,61.523,51.758,black
-43.945,38.086,40.039,3.906,13.184,black
-45.898,37.109,37.109,-3.906,17.578,black
139.16,33.691,35.156,69.336,55.176,black
-25.879,35.156,37.598,12.695,13.672,black
-94.238,32.715,39.551,-14.16,-11.719,black
12.207,34.18,38.086,19.531,122.559,black
-89.844,36.133,38.574,-23.926,11.719,black
-4.883,36.621,34.668,-6.836,13.672,black
138.672,34.668,33.691,53.223,-5.859,black
-35.645,39.062,37.598,-3.906,23.926,black
117.188,35.645,38.086,42.48,22.461,black
124.512,37.109,38.574,65.918,76.172,black
-46.875,40.527,41.504,10.254,45.41,black
-62.012,36.621,41.992,-0.488,14.648,black
92.285,35.156,34.668,49.316,38.574,black
184.082,37.598,30.762,83.496,41.504,black
-51.758,34.668,41.016,-0.488,-116.211,black
146.973,30.273,39.062,77.148,33.203,black
-90.82,35.156,43.457,0.977,75.684,black
-24.902,32.715,40.039,11.719,80.078,black
140.137,30.762,38.574,63.965,76.172,black
103.027,30.762,40.039,48.828,43.457,black
85.449,27.832,33.203,46.387,41.504,black
107.91,27.832,33.203,51.758,22.461,black
-55.664,30.273,33.203,-7.324,-11.719,black
-85.449,29.785,29.785,-24.902,-0.977,black
50.293,28.809,30.273,20.508,14.648,black
145.02,31.738,31.25,49.316,13.184,black
-80.078,32.715,33.203,-38.574,41.992,black
21.973,32.715,33.691,-2.93,11.23,black
158.691,31.738,31.738,55.664,-1.465,black
-65.918,33.691,35.156,-18.066,44.434,black
-15.137,33.203,33.203,2.93,-45.41,black
144.531,36.621,33.691,66.895,-2.441,black
119.141,36.133,36.621,67.383,53.223,black
-44.434,35.645,35.645,4.883,30.762,black
-20.02,31.25,32.227,2.441,41.016,black
50.293,34.18,32.227,14.16,24.414,black
159.18,33.691,32.715,62.5,33.691,black
26.367,33.691,37.109,26.855,13.672,black
-82.031,32.715,34.18,-9.766,49.316,black
-2.93,31.738,34.18,12.695,38.086,black
132.812,32.227,37.598,56.152,-6.836,black
61.035,34.18,37.598,35.156,-40.039,black
109.863,35.156,35.645,53.223,18.555,black
105.957,31.738,38.574,52.734,65.43,black
69.336,30.273,39.551,47.363,18.555,black
-15.137,36.133,31.738,3.906,17.578,black
-78.613,35.156,31.25,-25.879,-37.598,black
40.527,33.691,31.25,14.648,-39.062,black
49.316,39.062,38.086,41.016,21.973,black
3.418,37.598,29.785,3.906,38.086,black
85.449,37.598,34.668,54.688,24.414,black
-30.273,36.133,33.203,-6.348,51.27,black
116.211,32.715,32.227,51.758,49.805,black
121.094,31.25,32.715,62.012,33.691,black
-49.805,30.273,33.691,3.906,37.598,black
-71.777,29.785,32.227,-8.789,-4.883,black
62.012,30.273,32.715,34.18,-4.395,black
-4.395,36.621,31.25,12.695,64.453,black
-98.633,36.133,33.203,-27.832,93.75,black
5.371,35.645,32.715,10.254,51.27,black
148.438,35.156,29.785,55.176,25.391,black
51.27,35.645,28.809,18.555,7.812,black
-67.383,36.133,29.297,-20.02,-36.133,black
-9.277,36.621,31.738,-1.465,-36.133,black
125.977,34.668,33.203,55.664,15.137,black
86.426,33.691,32.715,56.641,56.641,black
-76.66,33.691,34.18,0.977,34.18,black
104.004,31.738,32.715,44.434,22.949,black
148.926,33.203,30.273,59.57,11.719,black
-11.23,33.691,34.18,9.766,5.371,black
-54.688,35.645,34.668,-9.766,-26.855,black
68.848,38.086,28.809,35.645,-57.129,black
162.109,38.086,29.785,79.59,25.391,black
18.555,36.133,34.18,34.18,95.215,black
-74.707,37.109,35.645,-14.16,91.309,black
17.09,34.668,36.621,16.602,35.156,black
149.414,26.855,32.715,69.336,40.039,black
68.848,27.832,29.297,39.062,34.18,black
-74.707,29.785,33.203,-12.207,20.02,black
-24.414,30.273,33.691,-0.488,31.25,black
122.559,30.762,29.297,46.387,48.828,black
95.215,30.273,32.715,47.363,19.043,black
-75.684,31.25,36.133,-11.23,0.977,black
130.371,33.203,38.086,63.477,-9.277,black
-34.18,35.645,38.086,8.301,16.602,black
-88.379,36.621,34.18,-15.625,24.414,black
37.109,31.738,34.668,25.391,-5.371,black
153.32,33.203,32.715,69.336,50.293,black
-79.59,33.203,33.691,-5.371,51.758,black
3.906,33.691,31.25,2.441,-17.09,black
144.531,31.738,31.25,48.828,-9.766,black
83.496,32.227,29.297,32.715,45.898,black
-60.059,34.18,31.25,-17.578,22.461,black
-16.113,37.109,31.25,-6.348,58.105,black
129.883,36.621,31.738,61.035,25.879,black
-33.691,37.598,33.203,-6.348,-19.043,black
-51.758,34.668,37.109,-11.719,-7.324,black
84.473,29.785,34.668,42.48,46.875,black
6.836,33.691,38.086,14.16,-47.363,black
-55.664,38.086,36.621,-18.066,-11.719,black
41.992,34.668,37.109,20.02,23.926,black
149.902,33.691,35.645,73.242,25.879,black
-81.543,34.18,40.039,-11.719,-5.859,black
-10.254,35.645,40.527,0.488,-22.949,black
92.285,33.691,38.574,42.969,0.488,black
-69.824,33.691,39.062,-12.695,64.941,black
105.957,35.645,39.062,41.992,41.504,black
133.789,39.062,38.574,55.664,21.484,black
-31.25,38.086,38.086,-2.441,33.203,black
67.871,33.203,34.18,30.273,64.453,black
161.133,33.691,35.156,67.383,64.941,black
10.742,32.715,37.109,20.996,31.738,black
-76.66,30.762,37.598,-12.695,31.25,black
25.879,30.762,34.18,22.949,24.902,black
160.645,32.227,31.738,70.312,-3.906,black
-61.523,34.18,39.062,-9.766,0.488,black
-10.254,36.133,36.133,11.23,21.973,black
140.625,36.133,34.668,74.219,72.266,black
-51.758,38.086,31.738,-5.371,-20.508,black
-41.016,38.574,36.133,-11.719,-12.695,black
98.633,38.574,35.645,42.969,21.484,black
-40.039,33.691,35.645,7.324,26.367,black
-83.496,31.25,37.109,-14.16,41.504,black
45.41,33.203,35.156,21.484,36.621,black
150.879,32.715,35.156,54.199,24.414,black
21.484,32.715,35.156,15.625,-10.742,black
-89.844,33.203,34.18,-22.461,-37.109,black
145.996,35.156,31.25,51.27,45.898,black
68.848,35.156,32.715,36.133,-26.367,black
-85.938,36.133,35.645,-15.625,-53.711,black
-37.598,35.156,34.18,-6.348,12.695,black
-43.945,33.691,35.156,-5.371,25.879,black
-48.34,34.668,34.668,-13.184,18.066,black
88.867,36.133,33.203,41.992,14.16,black
159.18,37.109,33.203,68.848,43.457,black
-8.789,35.156,35.156,13.184,-7.812,black
-83.984,33.203,35.156,-10.254,-33.691,black
35.645,36.133,35.156,27.344,-24.414,black
-75.195,35.645,36.133,-24.414,-50.293,black
147.461,33.203,33.691,53.223,59.57,black
76.172,36.621,38.574,40.527,38.574,black
-82.031,37.109,39.551,-19.043,23.926,black
99.121,33.203,34.668,41.504,9.766,black
114.258,33.691,37.598,59.082,56.641,black
-47.363,34.668,38.574,3.418,102.539,black
-69.336,32.715,37.598,-13.184,29.785,black
61.523,31.738,32.715,33.691,-3.906,black
144.531,31.25,31.25,62.5,24.414,black
-93.262,31.738,33.203,-20.508,-26.367,black
17.578,34.18,30.762,5.371,-23.438,black
40.527,33.203,35.645,33.691,43.945,black
-77.637,33.203,36.133,-19.043,2.93,black
-5.371,34.18,31.25,0,-14.648,black
151.367,36.621,29.785,60.059,5.859,black
109.863,36.133,37.109,53.711,48.34,black
-44.922,41.016,35.156,-3.418,12.695,black
106.934,34.18,36.133,41.504,5.371,black
137.207,33.691,37.109,53.223,8.789,black
-83.496,26.855,39.551,-14.16,53.711,black
141.113,33.203,32.715,62.988,5.371,black
9.277,31.738,34.668,24.414,39.551,black
-81.543,30.762,35.156,-11.23,16.113,black
17.09,30.273,32.715,17.09,-11.719,black
156.738,29.297,30.762,63.965,51.27,black
59.57,30.273,32.715,38.574,42.48,black
-84.473,26.367,34.668,-6.348,13.184,black
122.07,28.809,32.715,61.035,27.832,black
114.746,31.25,36.133,52.734,56.152,black
-41.504,29.785,36.621,-12.207,45.898,black
-47.363,25.879,35.156,-18.066,21.973,black
85.938,25.879,36.621,41.016,8.301,black
-33.203,24.414,37.109,8.301,31.25,black
-75.195,23.926,37.598,-22.461,51.758,black
52.246,23.438,35.156,23.926,5.371,black
37.598,27.344,38.574,30.273,51.758,black
7.324,29.297,36.621,7.324,48.34,black
149.414,30.762,36.621,64.453,58.105,black
75.684,32.715,34.18,52.246,10.742,black
-41.016,28.32,35.156,-9.766,96.68,black
105.957,27.832,32.227,40.527,41.016,black
105.957,30.273,31.25,45.41,5.859,black
-57.129,29.785,34.668,-15.625,16.113,black
67.871,33.203,32.227,33.691,44.434,black
134.277,29.785,30.273,63.477,87.402,black
28.32,32.227,33.691,6.836,-3.906,black
37.109,34.18,30.273,30.273,6.348,black
-79.59,35.156,31.25,-17.09,12.207,black
131.836,37.598,30.762,59.57,82.52,black
83.008,38.574,29.785,44.434,92.285,black
-35.645,36.133,31.25,-16.602,28.32,black
99.609,35.156,32.715,40.039,35.645,black
121.094,35.645,33.203,56.152,48.828,black
-44.922,34.668,34.18,-5.859,30.762,black
-78.613,33.691,32.715,-23.926,6.348,black
57.129,34.668,32.227,28.809,-11.23,black
138.184,32.715,35.156,68.359,37.598,black
-5.859,32.227,34.668,16.602,46.387,black
-79.102,33.691,34.668,-20.996,-25.879,black
16.113,30.273,36.133,20.996,-26.367,black
141.602,29.297,34.18,72.754,65.918,black
-92.285,32.715,34.18,-16.602,-17.09,black
-30.762,32.227,34.18,1.465,17.578,black
122.559,29.785,35.645,60.547,59.082,black
97.168,30.273,37.598,49.316,54.688,black
-64.453,33.203,38.574,-12.695,15.625,black
123.047,27.832,33.203,52.246,0.488,black
-28.32,28.32,35.156,-4.883,47.852,black
-72.266,27.832,38.574,-23.926,7.812,black
46.875,26.855,36.133,21.973,3.418,black
-88.867,31.25,35.645,-18.066,-2.441,black
0,33.691,39.062,16.113,-17.578,black
58.105,31.738,41.016,46.875,18.555,black
-71.777,33.203,41.504,3.906,-10.254,black
124.023,29.297,40.527,72.266,-31.25,black
110.352,31.25,39.062,72.754,-6.348,black
-53.711,32.715,40.039,2.93,17.578,black
-51.758,32.715,41.016,-15.137,46.387,black
89.844,35.645,41.504,38.574,48.828,black
150.879,32.227,41.016,65.43,12.695,black
-10.742,31.25,40.527,10.254,22.461,black
-73.73,33.203,41.504,-16.113,59.57,black
165.527,37.109,40.039,75.195,-57.129,black
-75.684,36.133,40.039,-11.719,-26.367,black
1.465,35.156,37.598,9.766,3.418,black
139.648,35.645,38.574,69.824,66.406,black
73.242,37.598,39.062,51.27,68.848,black
-80.078,36.621,39.062,-10.742,19.531,black
111.816,34.668,37.109,47.363,7.324,black
111.328,34.18,36.621,53.711,24.414,black
-62.988,32.715,38.574,-5.859,-7.324,black
-87.891,32.715,40.039,-24.902,7.812,black
53.223,35.156,40.039,17.09,13.184,black
128.906,36.621,39.551,44.434,-26.367,black
-26.367,39.062,42.48,-11.719,47.852,black
-103.516,36.621,47.363,-50.293,43.945,black
-11.719,34.668,45.898,-24.902,14.648,black
111.816,36.133,44.434,19.043,30.762,black
7.324,41.016,49.316,-11.719,35.645,black
-128.418,44.922,49.805,-62.988,41.504,black
-64.453,44.922,46.875,-53.711,68.848,black
83.984,45.41,49.805,4.883,104.492,black
29.297,47.363,50.293,-3.906,87.891,black
-135.742,49.316,49.805,-75.684,96.68,black
-113.281,47.363,48.828,-74.707,44.922,black
37.598,43.945,45.898,-15.625,-27.344,black
-93.262,47.363,51.758,-50.293,29.785,black
-136.719,44.434,54.199,-72.754,47.852,black
77.637,51.758,48.828,9.277,18.555,black
-69.824,48.34,52.734,-48.828,58.594,black
-48.828,58.594,55.664,-62.988,28.809,black
80.566,55.176,53.711,-10.254,18.066,black
-15.137,58.105,51.27,-39.551,-23.926,black
-154.785,58.105,54.199,-101.562,-20.996,black
-113.77,58.105,54.688,-96.68,-8.301,black
5.371,62.5,53.711,-61.035,3.418,black
-167.969,60.059,53.223,-119.141,-16.113,black
-177.734,64.453,54.688,-132.812,-4.883,black
-44.434,62.5,55.176,-83.496,60.547,black
7.812,62.5,57.129,-60.059,101.562,black
-145.02,68.848,57.129,-122.07,73.73,black
-202.148,62.988,56.152,-146.973,44.434,black
-85.449,59.082,57.617,-112.305,29.785,black
-197.754,69.336,54.199,-148.438,46.387,black
-104.004,66.895,51.758,-108.398,35.645,black
37.598,59.082,51.27,-47.852,41.016,black
-27.832,58.594,50.781,-54.199,16.113,black
-161.133,61.035,50.293,-101.562,19.531,black
-103.516,61.035,43.945,-93.75,-5.371,black
60.547,60.547,36.621,-23.438,55.664,black
73.242,57.129,37.109,5.371,102.051,black
-85.449,55.664,36.621,-47.363,24.414,black
-85.938,52.734,34.18,-52.246,19.531,black
145.02,46.387,23.438,61.035,-2.93,black
178.223,38.574,17.09,98.145,44.922,black
70.312,37.598,15.137,66.895,-27.344,black
-46.875,34.18,16.602,30.273,-59.57,black
41.992,33.203,14.16,64.941,-60.547,black
200.684,30.273,9.277,123.047,-8.789,black
185.547,24.902,11.719,115.234,46.875,black
51.27,22.949,12.207,78.125,44.922,black
18.555,25.879,11.719,59.082,15.137,black
149.902,22.461,13.184,105.469,-15.137,black
242.676,19.531,15.625,145.996,20.02,black
89.844,18.066,14.648,95.703,-11.719,black
4.883,16.113,13.672,61.035,20.996,black
114.258,14.16,14.16,98.145,-2.441,black
234.375,12.207,12.695,148.438,-16.113,black
126.953,12.207,15.625,125,48.828,black
3.418,11.719,22.461,84.961,40.527,black
61.523,13.672,22.461,95.215,35.645,black
206.543,14.648,18.555,141.113,55.176,black
175.781,13.184,23.438,133.789,63.477,black
7.812,14.16,24.414,68.359,-2.441,black
21.973,16.113,22.949,60.547,-3.906,black
172.363,14.16,25.879,108.398,51.758,black
200.195,10.254,24.902,123.047,40.527,black
31.738,12.695,26.367,63.477,-5.859,black
-16.602,13.184,25.879,36.621,21.973,black
104.492,12.207,24.414,76.66,81.543,black
204.59,15.137,26.855,112.305,56.152,black
72.266,16.602,28.809,69.336,46.387,black
-21.484,16.113,28.809,33.203,12.695,black
71.289,16.602,27.344,55.664,-9.277,black
206.055,14.648,27.344,107.91,20.996,black
116.699,14.648,28.32,88.867,61.035,black
-31.25,18.066,31.738,32.227,-15.625,black
171.387,19.043,27.832,103.516,9.766,black
-6.836,19.043,34.668,36.133,39.062,black
-11.719,20.508,32.715,30.762,20.996,black
129.883,22.949,32.227,86.426,45.898,black
183.105,22.461,34.18,111.328,12.207,black
19.531,23.926,31.25,51.758,-59.082,black
75.195,22.461,32.715,50.293,83.008,black
189.941,27.832,33.203,90.332,17.09,black
60.547,26.855,32.227,53.711,45.41,black
169.434,27.832,31.738,78.613,32.227,black
-48.34,28.809,33.691,3.906,23.438,black
-6.348,29.297,33.691,14.16,38.574,black
144.043,30.273,34.668,74.707,17.578,black
145.02,31.25,39.551,82.52,29.785,black
101.562,38.086,35.645,55.664,0.977,black
14.648,37.598,36.133,28.32,8.789,black
-65.918,38.574,33.691,-9.766,30.273,black
40.039,36.133,30.762,18.066,7.812,black
164.062,32.227,32.715,64.453,4.883,black
48.828,31.738,32.227,36.621,33.203,black
-74.219,33.203,32.227,-13.184,19.043,black
1.953,34.18,34.18,7.812,25.391,black
154.785,32.227,32.715,64.941,67.383,black
104.004,32.715,32.227,53.223,56.641,black
-51.758,33.691,33.691,0.488,14.16,black
-33.203,32.715,33.691,4.395,20.02,black
131.836,28.809,33.203,67.871,15.137,black
-37.598,23.438,33.203,5.371,56.152,black
-66.895,20.996,38.574,-6.348,10.254,black
67.383,22.949,37.598,39.551,7.324,black
152.344,23.926,32.227,57.617,60.547,black
-86.426,24.414,37.598,-16.113,47.852,black
7.324,24.414,33.203,19.043,8.301,black
139.16,27.832,31.738,61.523,7.324,black
-86.914,31.25,32.715,-20.02,47.852,black
-28.32,31.25,34.668,-5.371,61.035,black
128.906,33.691,31.25,44.434,33.691,black
108.887,35.645,33.203,43.945,54.199,black
-59.57,34.18,34.18,-17.09,34.668,black
94.727,33.691,34.668,42.48,-17.578,black
138.672,32.715,34.668,66.406,-41.992,black
-28.809,33.691,34.668,12.695,41.992,black
-64.453,34.18,32.715,-9.766,39.062,black
66.406,33.691,31.738,33.691,5.371,black
30.762,36.133,39.062,40.039,16.113,black
-65.918,33.691,38.574,1.953,28.809,black
13.184,29.297,37.598,23.438,54.199,black
75.684,34.18,37.109,35.645,4.395,black
-67.871,33.691,37.109,-19.531,61.523,black
-28.809,30.762,35.156,-12.695,53.711,black
106.445,32.227,32.227,43.945,94.238,black
99.609,33.203,34.668,57.617,77.637,black
-76.66,30.273,32.715,-20.996,-14.648,black
72.754,29.297,35.645,35.156,-13.672,black
139.16,29.297,37.598,62.5,42.48,black
-18.555,32.227,35.645,6.348,44.434,black
-78.125,32.227,34.668,-22.461,-8.301,black
139.16,33.203,37.598,66.895,28.809,black
25.391,34.18,39.551,34.18,14.648,black
-11.23,33.691,38.086,14.648,20.996,black
74.219,36.133,37.109,45.898,69.824,black
-70.801,36.621,37.109,-7.324,29.297,black
-33.691,36.621,36.133,-7.812,32.227,black
111.816,40.527,32.227,43.457,62.5,black
121.094,41.504,33.691,64.453,44.922,black
-51.758,38.574,35.645,3.418,0.977,black
-72.266,38.086,34.668,-10.254,22.949,black
75.195,39.062,33.691,41.504,36.621,black
161.621,39.551,35.645,71.777,5.859,black
7.812,40.039,38.574,20.508,69.336,black
-72.754,40.039,38.086,-19.531,78.613,black
35.645,37.598,37.109,19.043,-6.348,black
166.504,33.691,37.109,77.148,58.105,black
58.105,31.25,38.574,37.598,59.082,black
-76.172,33.691,36.133,-12.207,-10.742,black
-10.742,34.668,34.668,2.441,-28.809,black
134.766,33.691,34.18,55.176,-48.34,black
88.867,32.715,35.645,50.293,5.859,black
-66.406,29.785,38.574,-7.324,-10.254,black
92.773,32.227,35.645,48.828,-21.484,black
117.188,29.785,38.086,62.988,-3.418,black
-55.664,30.273,38.086,1.465,-13.672,black
-88.867,33.691,38.086,-14.648,-7.812,black
47.852,32.715,37.598,28.809,54.199,black
144.531,31.738,33.203,62.5,63.965,black
4.395,34.18,37.598,19.043,60.547,black
16.113,32.715,36.133,14.16,77.148,black
154.297,31.25,36.621,61.035,78.125,black
-22.949,32.227,38.574,3.418,-1.953,black
117.188,33.691,35.645,58.105,19.043,black
-44.922,34.18,33.691,-2.93,44.922,black
-49.316,35.156,30.273,-18.066,-17.578,black
83.984,33.691,29.297,30.762,-44.922,black
139.648,31.738,29.785,59.082,9.277,black
-16.602,32.715,31.25,1.465,-16.113,black
41.992,35.156,34.668,25.391,10.254,black
155.273,35.645,31.25,60.059,4.883,black
36.621,36.133,32.227,20.508,37.109,black
0,35.156,34.668,3.906,-19.531,black
141.113,37.598,33.203,64.453,-25.391,black
79.59,35.645,35.645,49.316,6.348,black
-64.941,33.203,38.574,-6.836,-12.207,black
-29.785,35.645,38.086,0.488,25.879,black
115.723,34.18,38.574,54.199,62.5,black
124.512,36.621,36.133,55.176,84.961,black
-33.203,34.18,36.621,-2.93,40.039,black
81.055,30.762,40.039,54.199,6.836,black
153.32,30.273,40.039,81.543,-12.695,black
-3.906,30.762,41.504,27.832,11.23,black
156.25,29.785,41.016,65.43,72.266,black
50.781,31.738,44.922,33.203,72.754,black
-11.23,32.227,42.48,8.301,-19.043,black
143.066,33.691,42.48,52.734,15.137,black
84.473,30.762,41.992,41.016,16.602,black
-80.078,30.273,42.969,-11.719,-37.109,black
-50.293,30.762,40.039,-12.207,15.137,black
102.539,32.715,37.109,44.922,71.777,black
129.395,35.645,36.621,56.641,37.598,black
-33.203,32.227,41.992,-6.836,-20.508,black
-68.848,28.32,41.016,-24.414,42.969,black
58.594,30.762,36.621,23.926,103.516,black
142.09,35.156,36.133,62.988,77.637,black
-6.348,35.156,35.156,12.207,93.262,black
-86.914,35.156,36.621,-20.996,64.941,black
11.719,37.598,35.156,16.113,-2.93,black
147.949,34.668,32.715,57.617,84.473,black
52.734,30.762,35.645,23.438,66.895,black
-77.637,31.25,35.645,-24.902,-13.184,black
142.578,32.715,36.621,63.965,17.578,black
106.934,34.18,37.598,59.082,32.715,black
-52.734,35.156,37.598,0.977,32.227,black
-45.41,35.645,38.086,-1.465,41.016,black
100.586,36.133,38.574,45.41,69.336,black
-21.973,38.086,36.621,16.602,0.488,black
-74.219,37.109,36.133,-12.695,20.996,black
58.105,36.133,36.133,37.598,28.809,black
165.039,39.062,38.086,79.59,20.996,black
26.855,38.086,40.527,30.273,-34.668,black
155.762,33.203,38.086,74.707,7.812,black
65.918,31.25,39.551,54.688,-27.344,black
-82.031,31.25,37.598,0,-41.016,black
-30.273,33.203,33.691,-2.93,-17.09,black
120.117,32.715,33.203,41.992,19.531,black
104.004,33.691,37.109,42.48,0,black
-65.43,32.715,36.133,-18.066,-1.953,black
80.566,31.25,33.691,34.668,55.176,black
-10.742,32.715,37.109,6.836,-21.973,black
-73.73,31.738,35.156,-16.113,-7.324,black
161.133,28.32,35.645,61.035,26.367,black
39.062,28.32,38.086,22.949,-1.953,black
-80.078,30.762,36.133,-17.09,-50.293,black
0.977,28.32,34.668,5.371,-67.871,black
152.344,30.762,33.691,62.012,-44.922,black
-31.25,34.668,36.133,-5.371,-10.254,black
123.047,32.227,37.109,49.805,-1.953,black
130.371,29.297,40.039,65.43,-6.348,black
-74.219,29.297,35.156,-18.555,76.172,black
65.918,29.297,34.668,31.738,40.527,black
137.207,30.762,38.574,66.895,46.875,black
-13.672,35.156,38.574,15.137,11.23,black
-83.984,38.086,35.156,-18.555,2.93,black
15.137,33.691,36.621,16.602,36.621,black
142.578,31.738,35.156,63.477,23.926,black
-84.473,35.156,34.668,-27.344,-88.867,black
102.051,35.156,36.133,50.781,-7.812,black
-69.824,36.621,37.109,-6.836,-5.859,black
102.539,32.715,39.062,44.922,-53.223,black
137.207,40.527,36.133,60.059,1.953,black
-29.785,40.039,34.668,-1.953,14.648,black
-72.266,34.18,34.668,-18.555,-5.859,black
56.641,33.691,35.156,29.297,30.762,black
153.32,32.715,35.645,63.965,30.273,black
8.789,32.715,36.621,20.996,41.504,black
15.137,30.762,39.062,17.09,67.383,black
149.414,30.762,37.109,69.336,36.133,black
62.988,30.273,35.645,39.062,-4.395,black
-77.637,29.785,37.109,-19.043,-6.836,black
-28.32,30.762,34.668,-5.859,66.406,black
131.836,35.645,33.691,52.734,77.148,black
113.77,37.598,34.668,47.852,-13.184,black
-67.871,32.227,38.574,-11.719,-40.527,black
-61.523,31.25,38.574,-14.648,-15.137,black
93.262,33.203,34.668,35.645,14.648,black
-27.344,31.738,38.086,8.789,-1.465,black
-79.102,32.227,37.109,-12.695,33.203,black
47.363,33.691,35.156,26.855,47.363,black
160.156,34.668,34.668,64.941,11.719,black
-68.359,36.621,34.668,-17.578,103.027,black
9.766,33.691,34.18,3.906,40.039,black
148.438,32.715,29.785,55.664,42.969,black
78.613,32.715,33.203,38.574,38.086,black
-75.195,29.297,35.156,-19.043,40.039,black
-34.18,29.785,31.25,-10.742,40.039,black
119.141,32.227,31.25,48.34,64.453,black
108.887,32.227,34.18,58.105,93.75,black
-67.383,27.832,35.645,-17.09,-32.227,black
73.242,28.32,35.156,37.109,57.129,black
-9.277,31.25,34.668,-3.418,-1.953,black
-76.66,28.809,33.203,-27.832,40.527,black
30.273,28.809,34.18,17.578,64.941,black
151.367,34.18,39.062,66.895,38.574,black
35.645,35.156,38.574,34.18,-25.879,black
-85.449,30.762,38.086,-20.02,2.93,black
-9.277,27.832,39.062,-4.395,19.531,black
77.148,24.414,36.133,39.062,40.527,black
-68.359,27.344,37.598,-17.578,13.184,black
-45.898,28.32,38.086,4.395,25.391,black
-74.219,27.832,37.109,-2.441,20.996,black
53.223,27.832,33.203,41.992,107.91,black
145.02,26.855,34.668,69.336,28.809,black
13.184,29.297,39.062,22.461,-14.16,black
-70.801,29.297,39.551,-10.742,48.34,black
27.832,25.391,38.574,14.648,-0.488,black
164.551,26.855,35.645,61.035,27.832,black
67.383,28.809,36.133,37.109,77.637,black
-64.453,26.367,36.133,-14.16,49.805,black
-9.766,25.391,34.18,4.883,-28.809,black
95.215,28.809,34.668,55.664,-20.02,black
90.82,29.785,36.621,49.316,53.223,black
-69.824,32.715,37.598,-19.531,23.926,black
53.223,31.738,36.621,20.02,-37.109,black
151.855,32.227,34.668,56.152,2.441,black
18.066,33.203,36.133,10.742,-26.367,black
-80.078,35.156,34.18,-23.926,-9.766,black
7.324,33.203,35.156,9.766,41.504,black
149.902,31.25,35.156,69.336,-18.555,black
73.73,35.645,33.691,50.781,31.738,black
-72.754,36.133,33.691,-10.742,79.59,black
-31.25,34.18,34.18,-7.812,69.336,black
124.512,35.645,33.691,49.316,52.246,black
114.258,35.645,36.621,53.223,-2.441,black
-52.246,33.203,40.039,-2.441,-34.18,black
-58.594,33.203,35.156,-14.648,3.906,black
81.055,31.25,34.668,28.809,44.922,black
-75.684,30.762,39.062,-16.602,42.969,black
38.086,31.738,37.109,16.602,18.555,black
152.832,31.25,35.156,56.641,-14.648,black
24.902,31.25,40.039,18.066,9.766,black
-12.695,30.762,33.203,-4.395,1.953,black
137.207,27.832,34.18,57.129,47.363,black
66.895,31.738,38.086,48.34,68.848,black
-94.238,31.25,41.016,-8.789,26.855,black
-54.688,28.32,39.062,-2.93,-10.742,black
98.633,29.785,35.645,49.805,11.23,black
113.281,32.715,38.574,57.129,24.414,black
-45.898,32.715,42.48,0,9.766,black
-62.5,30.273,40.039,-24.414,36.133,black
79.59,34.18,37.598,25.391,36.133,black
-5.371,33.691,37.109,17.578,20.996,black
-84.961,32.715,36.133,-7.812,15.137,black
26.855,31.738,34.18,23.926,24.902,black
159.668,33.203,35.156,65.918,51.27,black
51.27,35.645,37.598,44.922,31.738,black
-13.672,28.32,35.645,15.137,5.371,black
134.277,27.344,32.715,66.895,7.324,black
-64.941,27.832,33.203,-13.672,23.926,black
-41.504,27.832,32.715,-10.742,5.859,black
110.84,27.832,35.156,41.504,34.668,black
133.789,29.297,33.203,57.129,-0.488,black
-38.086,29.785,33.691,7.812,-21.484,black
-69.336,30.762,36.133,-6.348,2.93,black
58.105,32.227,37.109,29.297,-42.48,black
14.648,30.273,34.18,18.555,60.547,black
-76.172,31.738,37.109,-17.09,24.902,black
156.738,31.25,34.668,71.777,56.641,black
61.035,34.18,35.156,52.734,81.543,black
-77.148,32.715,35.156,-2.93,45.41,black
-13.672,32.227,33.691,7.812,60.547,black
141.113,35.156,30.273,65.918,73.73,black
105.469,35.156,31.738,52.246,36.621,black
91.797,36.133,32.227,44.922,-13.184,black
141.602,35.645,32.715,61.523,50.293,black
-22.949,32.227,32.227,6.836,30.762,black
55.664,33.203,30.762,26.367,22.461,black
157.715,32.715,27.344,64.941,58.105,black
33.691,33.203,31.25,29.297,34.668,black
-73.242,33.691,34.18,-12.207,17.578,black
162.109,33.691,29.785,57.617,18.066,black
84.961,32.715,33.203,36.133,33.691,black
-76.172,32.715,32.227,-14.16,-7.812,black
-44.434,31.25,32.227,-4.395,-11.23,black
114.746,30.762,31.738,51.758,-6.348,black
116.211,31.25,32.227,55.664,-37.598,black
-54.688,31.25,34.18,-3.906,0,black
-61.523,28.809,32.227,-11.719,30.273,black
149.902,27.344,30.762,66.406,38.574,black
-9.766,28.809,30.273,14.16,13.184,black
-77.637,28.32,29.785,-12.695,22.949,black
38.086,29.785,29.297,20.996,23.438,black
159.668,29.785,29.785,62.5,27.832,black
-80.078,31.738,29.297,-17.578,64.941,black
141.602,29.297,29.297,53.711,-0.977,black
-72.754,31.738,34.668,-11.23,15.137,black
-41.992,29.297,33.203,-4.395,-65.43,black
110.352,32.227,32.227,45.41,-36.133,black
124.023,34.668,36.621,62.988,58.594,black
-41.016,33.691,38.574,12.695,61.035,black
-63.477,31.738,36.621,-7.812,1.953,black
67.383,34.18,33.203,37.109,17.578,black
-1.465,30.762,36.621,19.531,37.109,black
-80.566,31.738,37.598,-5.859,-13.672,black
14.16,31.738,34.668,24.414,27.832,black
144.043,27.832,33.691,70.801,67.871,black
47.852,26.367,36.133,34.668,93.262,black
-82.031,30.273,35.156,-21.484,57.617,black
-22.461,31.25,34.668,-0.488,15.137,black
127.441,29.785,36.133,60.059,36.133,black
97.168,30.273,36.621,59.57,-12.695,black
-43.945,35.156,37.598,-4.395,14.16,black
103.516,35.156,36.621,52.734,-19.043,black
139.648,33.203,37.109,67.871,-44.922,black
-29.785,35.156,36.133,11.23,3.906,black
-74.707,33.203,38.086,-1.953,13.672,black
58.594,30.273,36.621,42.48,-23.438,black
160.645,31.738,30.762,78.125,39.062,black
-66.406,32.715,35.645,-5.371,-36.133,black
13.672,34.18,36.133,12.695,-1.953,black
147.949,34.668,34.18,51.27,54.688,black
70.312,33.203,34.18,30.273,57.129,black
-73.242,32.715,33.691,-21.973,72.266,black
-19.043,32.227,34.668,-6.348,29.297,black
140.137,29.297,36.133,60.059,-8.301,black
117.188,30.273,34.668,56.152,1.465,black
-62.012,32.715,34.18,-5.371,10.742,black
-58.105,28.809,35.645,-5.371,26.367,black
85.938,27.344,35.645,42.48,14.648,black
141.602,32.227,33.203,62.5,43.945,black
-74.219,32.227,34.18,-17.09,-41.992,black
47.852,35.156,32.715,26.855,12.695,black
154.785,35.645,33.691,71.777,16.113,black
156.738,33.691,35.156,77.637,25.879,black
94.238,33.691,37.109,61.523,18.066,black
-25.391,37.109,33.691,5.371,98.145,black
132.324,33.691,32.715,57.617,58.105,black
133.301,34.18,33.691,63.477,74.219,black
-41.992,39.062,36.133,7.812,57.617,black
85.449,32.715,33.691,38.086,37.109,black
150.879,31.738,33.203,68.848,12.695,black
-8.789,29.785,31.738,17.578,-0.977,black
-78.125,28.809,32.227,-11.23,-2.441,black
154.785,29.297,27.832,64.941,99.121,black
42.48,27.832,30.273,26.367,32.227,black
-85.938,26.367,35.156,-15.625,-34.18,black
-16.602,26.367,35.156,10.254,-14.16,black
131.348,24.902,31.738,60.547,4.883,black
83.984,27.832,33.691,45.41,36.621,black
-74.219,28.809,31.25,-15.137,66.895,black
90.332,28.32,31.738,43.457,76.172,black
-34.18,34.18,34.668,-0.977,25.391,black
-68.848,32.715,37.109,-10.254,19.531,black
59.082,31.25,36.133,37.109,-3.906,black
6.348,30.762,34.18,21.484,21.484,black
-75.195,28.809,33.203,-14.648,28.809,black
61.035,32.715,35.645,53.711,11.23,black
-59.082,31.738,35.645,5.371,-7.812,black
129.883,27.344,40.039,53.223,-0.488,black
106.934,34.18,35.156,44.434,34.668,black
-63.965,36.133,35.645,-18.555,-5.371,black
-51.758,34.18,37.109,-24.902,39.062,black
104.004,32.227,36.621,30.273,83.008,black
149.414,34.18,35.156,56.641,56.641,black
-24.902,34.18,34.668,9.277,42.969,black
-76.172,33.203,34.668,-9.766,-46.875,black
40.039,33.203,32.227,31.25,-57.617,black
0.977,31.738,33.203,23.438,38.086,black
-93.262,29.785,34.668,-14.16,24.902,black
-3.906,29.785,32.715,3.906,51.758,black
71.289,29.785,31.738,29.297,26.855,black
117.188,32.715,33.691,62.012,37.598,black
106.934,33.691,31.738,61.035,20.02,black
-55.176,36.621,31.738,-5.371,20.996,black
-57.129,36.621,33.203,-20.02,17.09,black
81.543,36.621,29.785,28.32,-10.254,black
-9.277,40.039,31.25,12.207,-3.418,black
-68.848,40.039,32.227,-16.602,28.809,black
165.039,37.598,26.855,65.43,30.762,black
42.48,33.203,29.785,34.18,-5.371,black
-80.078,32.715,32.715,-7.324,-30.273,black
-6.348,33.691,33.691,19.531,-5.859,black
134.766,33.203,33.691,66.406,76.66,black
82.52,34.18,33.203,40.039,83.984,black
-62.012,36.621,30.762,-20.996,62.012,black
-35.645,35.156,31.738,-17.578,30.762,black
122.559,29.785,36.133,48.828,21.973,black
-46.875,30.762,39.551,-4.883,42.48,black
-64.453,35.156,34.668,-11.719,37.109,black
67.383,35.156,32.227,28.809,42.969,black
-4.395,31.25,38.574,14.648,-44.922,black
-87.891,28.809,37.598,-23.926,-84.473,black
150.879,33.203,30.273,62.012,37.598,black
-88.867,30.273,40.039,-15.137,-13.184,black
-20.508,30.273,35.156,-12.695,-27.344,black
139.648,32.715,33.203,43.457,-19.531,black
101.074,29.785,36.133,42.48,39.551,black
-58.105,29.785,35.645,-2.93,56.152,black
-33.203,32.715,37.109,5.859,8.301,black
-78.125,30.762,36.133,-18.066,29.785,black
45.41,27.832,34.668,22.461,49.805,black
142.578,28.32,32.227,58.105,29.297,black
6.836,28.809,29.785,10.254,41.504,black
17.09,31.738,31.25,1.953,22.949,black
150.391,28.32,32.227,53.223,13.184,black
55.664,30.273,35.156,32.715,-11.719,black
-85.449,32.227,35.645,-12.207,10.742,black
105.469,37.109,29.785,49.805,31.738,black
-55.176,36.133,32.227,-7.324,13.672,black
83.008,33.691,34.668,42.969,20.996,black
-70.312,31.738,35.156,-16.113,19.043,black
42.969,32.227,36.133,25.391,102.051,black
145.508,32.227,38.086,67.871,123.535,black
-83.008,26.855,36.621,-7.812,6.836,black
6.348,30.762,36.621,14.16,27.832,black
152.832,33.203,37.109,72.754,29.297,black
83.984,36.133,37.598,57.617,71.289,black
-62.012,39.062,35.645,-2.441,39.062,black
-25.879,33.691,32.715,-3.418,-27.344,black
123.535,31.25,31.738,52.246,31.738,black
127.93,35.645,34.18,65.43,82.031,black
-42.48,34.668,39.551,10.742,2.93,black
83.496,36.133,34.18,41.504,7.812,black
154.297,34.18,39.062,66.895,45.41,black
5.859,34.668,41.504,18.555,20.02,black
-71.777,30.762,40.527,-6.836,2.93,black
26.855,28.32,38.574,28.32,12.207,black
150.879,30.762,37.598,70.801,38.574,black
-85.449,29.785,38.574,-12.695,4.883,black
-18.066,29.297,34.668,7.812,38.574,black
131.836,28.809,28.32,58.105,35.645,black
86.426,30.762,30.273,50.293,56.152,black
-70.312,29.297,35.156,-4.395,74.707,black
-45.898,28.809,32.715,0.977,2.93,black
107.422,31.25,30.273,48.34,27.832,black
134.766,29.785,31.738,58.594,20.996,black
-31.25,30.273,35.156,8.301,43.945,black
-69.824,31.25,35.645,-6.836,41.016,black
63.965,31.25,32.227,37.109,43.457,black
160.156,34.18,29.297,67.871,92.285,black
-69.336,30.273,31.738,-19.531,42.969,black
20.508,27.344,32.715,16.602,47.363,black
152.344,27.344,31.25,67.383,37.598,black
60.059,29.297,34.668,39.062,26.367,black
-13.672,31.25,33.203,1.953,31.25,black
136.719,33.691,30.762,53.711,16.602,black
105.957,33.203,31.738,50.781,-0.977,black
-62.012,31.738,30.762,-4.883,29.297,black
-52.246,29.785,30.273,-9.766,31.738,black
139.648,31.25,35.156,72.266,40.527,black
-16.602,36.133,36.621,15.137,18.066,black
-66.895,33.691,39.551,-5.371,-1.465,black
159.668,35.645,40.039,68.848,55.664,black
30.273,36.621,40.527,18.555,119.629,black
-72.754,35.156,39.062,-22.461,107.422,black
13.672,34.18,40.039,5.859,8.789,black
147.949,33.691,41.992,63.965,-21.973,black
65.918,31.738,40.039,41.016,40.527,black
-75.684,31.25,37.598,-13.184,47.852,black
-23.438,28.809,37.109,0.977,-50.781,black
128.418,28.809,35.156,56.641,-56.641,black
-54.688,32.715,34.18,-7.812,-10.742,black
99.609,36.621,34.18,39.551,-24.414,black
167.969,39.551,33.691,70.312,47.363,black
145.996,25.391,38.086,63.965,51.27,black
16.113,26.855,41.504,26.855,26.367,black
-100.586,28.32,41.992,-26.855,33.691,black
-18.555,26.367,38.574,-1.953,77.148,black
125.977,24.902,32.227,50.781,67.871,black
-80.078,27.344,36.621,-12.695,-31.738,black
-44.434,28.809,35.645,-10.254,-68.359,black
108.398,29.297,35.156,46.387,-21.973,black
120.117,27.832,34.18,57.129,28.809,black
-55.664,26.855,36.621,-0.488,4.883,black
-78.613,25.879,37.109,-9.277,-14.16,black
59.57,26.855,37.598,38.086,-65.43,black
139.648,30.273,39.551,70.801,-45.41,black
-10.742,31.738,38.086,22.461,-11.23,black
-96.191,27.832,38.086,-8.789,-4.395,black
17.09,25.391,36.133,19.531,17.09,black
42.969,27.832,32.227,22.461,63.477,black
-80.566,28.32,34.18,-36.133,18.555,black
-11.23,31.738,35.645,-18.066,79.59,black
133.789,31.25,34.18,42.969,84.473,black
-74.707,30.273,32.715,-26.367,22.949,black
90.82,28.809,25.391,30.273,31.738,black
124.023,31.25,30.273,53.711,59.57,black
-47.852,30.273,31.738,0.488,45.898,black
-85.938,25.879,31.25,-24.414,14.16,black
52.246,29.785,29.785,16.602,10.254,black
15.137,34.18,31.25,9.766,24.902,black
-79.59,34.18,32.227,-29.297,21.484,black
12.695,31.25,29.297,3.418,22.949,black
146.484,31.738,27.344,60.547,62.988,black
60.059,34.668,28.32,39.062,18.555,black
-72.266,34.668,27.832,-12.207,-36.621,black
125.488,33.203,29.785,53.711,-20.508,black
-52.246,31.25,33.691,-7.324,23.438,black
-56.641,29.297,34.18,-8.789,-17.09,black
141.113,29.785,32.715,64.941,53.711,black
-20.508,30.273,34.18,13.672,36.133,black
-68.359,29.297,33.203,-10.742,35.645,black
48.828,30.273,30.762,23.438,19.531,black
20.996,30.273,31.738,19.043,66.895,black
148.926,28.32,33.691,62.012,40.039,black
77.637,30.762,34.18,52.734,54.199,black
-81.055,29.785,34.18,-12.207,47.363,black
111.328,25.879,34.668,55.664,29.785,black
-49.805,25.391,37.598,-0.977,16.113,black
-68.359,25.391,38.086,-12.207,-11.719,black
71.777,26.855,33.691,35.645,-3.418,black
142.578,29.785,32.715,62.012,41.016,black
-17.578,29.785,33.691,6.348,41.504,black
-76.66,31.25,29.785,-22.949,57.129,black
154.785,30.273,32.715,62.988,-31.25,black
34.18,28.32,35.156,20.508,-7.324,black
-84.473,28.32,32.715,-26.367,-18.555,black
-15.625,27.344,31.738,-2.441,-7.324,black
127.93,24.902,33.691,57.617,23.926,black
81.055,25.391,33.691,51.758,70.801,black
-69.336,26.367,36.133,-14.648,62.988,black
-41.504,25.879,36.133,-15.137,-3.418,black
106.445,26.855,34.668,46.387,-12.207,black
120.605,26.855,34.668,61.523,43.945,black
-52.734,24.902,36.621,5.859,21.484,black
60.547,24.414,33.691,32.227,60.059,black
155.273,27.832,31.738,69.824,12.207,black
12.207,29.297,35.156,23.438,7.812,black
-69.824,30.273,35.156,-13.184,80.078,black
25.391,31.738,36.133,20.02,45.41,black
153.32,29.785,36.133,71.777,62.5,black
-64.453,35.645,35.156,-3.906,-38.574,black
-0.977,34.18,35.645,10.254,-12.695,black
144.043,31.738,32.715,64.941,57.617,black
109.863,33.691,31.25,66.406,37.598,black
-62.012,35.156,31.738,7.812,0,black
-55.176,35.645,33.691,1.953,28.32,black
67.383,37.109,33.691,35.156,-15.625,black
171.875,41.992,34.18,75.195,32.715,black
-73.73,34.18,41.016,-7.812,-20.508,black
12.695,34.668,38.086,23.438,-83.496,black
75.684,37.109,35.645,43.945,20.02,black
-75.195,37.109,38.086,-9.766,17.578,black
-30.273,34.668,35.156,-0.488,-4.883,black
128.418,35.156,33.203,63.477,43.457,black
119.141,37.598,34.668,59.082,90.82,black
-48.34,36.133,36.133,-10.254,59.082,black
143.555,36.133,36.133,69.336,31.738,black
-87.402,34.18,38.086,-8.301,8.789,black
27.344,31.25,36.133,35.645,26.367,black
147.461,33.691,36.133,76.66,37.598,black
23.438,37.598,35.156,39.551,6.348,black
-91.797,38.574,33.203,-5.859,-22.461,black
-6.348,38.574,33.691,14.648,-7.324,black
151.855,40.039,32.715,70.801,0.977,black
86.914,41.504,30.762,44.922,14.16,black
-31.738,37.598,35.156,-7.812,1.953,black
117.676,37.109,33.691,60.059,111.816,black
-43.457,40.039,36.621,-4.395,44.922,black
-59.082,40.039,34.668,-20.996,-5.371,black
76.172,37.109,34.18,29.297,27.832,black
-5.859,32.227,35.156,10.742,-34.18,black
-81.055,34.18,36.621,-15.625,-5.371,black
21.484,32.715,34.668,16.602,19.531,black
147.461,32.227,34.18,59.57,-26.367,black
-86.426,32.715,34.18,-17.578,-2.93,black
129.883,33.691,31.738,57.129,11.719,black
83.008,32.715,32.227,45.41,44.922,black
-75.195,33.203,34.668,-19.531,14.16,black
-53.223,32.715,34.18,-15.137,20.996,black
93.75,30.273,33.203,42.48,60.059,black
123.535,31.738,35.156,57.129,16.113,black
-72.266,29.297,36.621,-15.137,-58.594,black
62.012,31.738,35.645,30.762,12.207,black
153.32,34.18,34.668,63.965,53.223,black
15.137,31.25,33.691,28.809,13.672,black
-72.754,29.297,33.203,-2.93,-5.371,black
18.555,31.738,33.691,16.113,-9.277,black
158.203,33.691,30.762,67.383,55.176,black
-90.82,32.715,39.551,-21.973,22.461,black
120.605,28.32,38.574,43.457,25.879,black
103.516,33.203,39.551,41.992,46.875,black
81.055,29.785,41.992,41.992,52.246,black
44.434,29.785,34.668,20.508,26.367,black
150.879,32.227,32.715,68.359,2.441,black
29.297,32.227,34.18,28.32,8.301,black
-63.965,33.203,33.203,-13.184,13.184,black
11.719,33.691,32.715,9.277,-11.23,black
148.438,32.227,35.156,67.871,2.93,black
78.125,32.227,38.574,51.27,16.602,black
-23.926,28.809,34.668,-3.906,59.57,black
128.906,31.25,33.203,51.758,67.383,black
123.047,33.691,34.18,57.129,71.777,black
-48.828,33.203,35.156,0,26.855,black
-57.617,33.203,34.18,-10.254,-30.273,black
78.613,33.203,33.691,38.574,-35.645,black
146.973,35.645,34.668,67.383,40.039,black
-1.953,34.668,36.133,14.648,45.898,black
-72.266,34.18,35.645,-10.254,-1.953,black
152.832,31.738,34.668,66.895,-17.09,black
33.203,32.715,37.598,39.551,-10.742,black
-84.473,32.715,35.156,-8.789,-9.766,black
138.672,34.18,33.691,61.523,30.762,black
85.449,33.691,32.227,42.969,41.992,black
-39.551,29.297,34.18,-12.695,-42.969,black
106.445,29.297,34.18,43.457,57.129,black
-40.527,30.762,35.156,2.93,53.223,black
-69.336,29.785,34.668,-19.043,40.039,black
67.871,29.297,33.691,30.273,52.246,black
151.855,32.715,34.18,74.219,28.32,black
10.254,33.203,35.645,23.926,-29.297,black
-75.195,32.227,35.645,-13.672,-12.207,black
17.578,34.668,36.133,18.066,-2.441,black
148.438,36.133,35.645,64.941,-6.348,black
-79.59,35.645,36.621,-19.531,52.246,black
-15.137,36.621,36.621,2.441,21.973,black
132.812,33.691,35.156,61.523,23.438,black
97.168,33.203,35.156,53.223,9.766,black
-44.922,34.18,37.598,2.441,-1.465,black
102.051,32.227,36.133,51.27,50.293,black
129.395,33.203,40.527,68.359,89.844,black
-32.227,36.133,40.527,12.695,83.008,black
-71.777,37.109,40.527,-7.324,4.395,black
154.785,32.715,40.527,72.754,25.879,black
18.555,35.156,37.598,26.367,12.695,black
-78.613,34.18,38.086,-11.23,0,black
10.742,32.227,37.109,15.137,-12.207,black
148.926,34.18,34.668,66.406,24.902,black
62.012,35.156,35.156,42.48,58.105,black
-15.625,34.668,34.668,3.906,38.086,black
129.395,33.691,33.691,55.176,60.547,black
106.445,33.203,34.668,54.199,21.973,black
-59.082,33.691,38.574,0.488,-2.441,black
-58.105,35.645,35.645,-3.418,-21.484,black
85.938,33.691,32.227,45.898,-20.996,black
140.625,35.156,32.715,69.824,11.719,black
-17.09,38.086,35.645,20.996,-5.859,black
-60.059,34.18,37.109,-6.348,-21.484,black
66.406,34.668,34.18,23.438,34.18,black
173.34,38.086,35.645,65.43,69.824,black
-11.719,35.645,32.227,10.254,-34.668,black
73.73,38.574,32.715,52.734,8.789,black
-74.219,40.039,34.18,-4.883,61.035,black
-34.668,40.039,32.715,-15.137,53.711,black
116.699,38.086,32.715,53.223,22.949,black
-43.457,39.062,33.691,-3.906,-27.832,black
-63.477,38.574,32.227,-16.602,-18.066,black
68.848,36.621,32.715,28.809,19.043,black
-3.418,40.039,30.273,7.812,87.402,black
-77.148,35.156,29.785,-22.461,43.945,black
29.785,30.762,30.762,10.742,34.668,black
-80.566,32.227,35.645,-13.672,39.551,black
-10.254,33.691,31.25,1.465,42.48,black
-63.477,35.156,34.668,-18.555,34.668,black
-42.48,33.691,37.598,-6.836,43.945,black
126.953,30.273,39.551,69.824,106.934,black
-67.383,33.203,35.156,-14.16,-26.367,black
156.738,34.18,34.18,75.684,27.832,black
5.371,31.25,38.086,27.832,11.23,black
-75.684,32.227,34.668,-5.859,35.156,black
23.438,32.227,29.785,25.879,-6.348,black
152.344,32.227,31.25,74.219,-29.297,black
53.711,32.715,35.156,49.316,47.363,black
-83.496,32.715,39.062,-5.371,28.809,black
-28.809,30.762,37.109,4.395,57.129,black
126.465,30.762,36.621,58.105,90.332,black
-72.266,27.832,39.062,-4.395,14.16,black
-64.941,27.832,40.039,-3.906,7.324,black
134.277,31.738,32.715,67.383,20.996,black
-28.32,34.18,36.133,3.906,58.594,black
-80.566,31.25,38.574,-24.902,58.105,black
43.945,31.738,36.133,17.578,46.387,black
147.461,32.715,34.668,62.012,78.125,black
13.184,31.25,34.668,18.555,11.719,black
-88.379,31.25,34.668,-23.438,-41.992,black
138.184,29.297,28.809,52.734,72.266,black
73.73,32.227,31.738,38.086,12.207,black
-63.965,32.715,35.645,-12.207,13.672,black
-20.996,33.203,32.715,-8.789,26.855,black
123.535,32.715,31.25,48.828,58.594,black
116.211,33.203,33.203,57.129,53.223,black
-57.617,38.574,36.621,-20.508,-30.273,black
77.148,37.598,34.668,37.598,19.531,black
142.578,36.621,36.133,72.754,50.293,black
-15.137,35.645,36.621,15.625,16.602,black
-79.59,34.668,34.18,-15.137,21.484,black
38.086,30.762,33.691,36.133,1.953,black
-8.789,31.25,34.18,1.953,-49.316,black
142.578,32.715,31.25,61.035,53.223,black
-75.684,33.203,34.18,-9.766,-28.809,black
-36.621,32.227,31.738,-9.766,12.695,black
117.188,32.715,31.738,42.48,73.73,black
129.883,32.227,32.715,50.293,66.406,black
-40.039,34.668,32.227,-7.324,21.973,black
-73.73,34.18,32.227,-18.066,41.016,black
57.617,32.715,33.691,34.668,37.598,black
139.16,32.715,36.133,71.289,5.859,black
-4.883,33.203,39.551,16.113,-26.855,black
-78.613,34.668,37.598,-31.738,-25.879,black
24.902,34.18,33.203,5.371,5.859,black
156.25,33.691,33.203,65.43,58.594,black
58.594,34.668,33.691,37.109,57.129,black
-70.801,34.18,37.598,-19.043,16.113,black
-16.113,38.086,35.645,-5.371,51.758,black
120.117,39.062,31.738,49.316,72.754,black
-70.801,38.086,41.504,-16.113,46.387,black
69.824,32.715,40.527,36.133,35.645,black
-62.5,40.527,41.992,-21.484,35.645,black
-101.562,40.039,41.016,-48.34,-19.531,black
116.699,42.969,46.875,35.156,27.832,black
-14.648,42.969,49.316,-9.766,-5.859,black
-113.77,38.086,47.852,-63.965,20.996,black
-18.555,43.945,42.969,-32.227,-10.254,black
125.488,47.363,41.504,30.762,-12.207,black
-105.469,42.48,37.598,-43.457,37.598,black
-59.082,39.062,38.086,-27.832,38.574,black
76.172,41.016,40.039,26.367,-1.953,black
-84.961,37.598,39.551,-28.32,42.48,black
-75.195,40.039,38.086,-28.809,41.992,black
80.566,43.945,33.691,23.926,35.645,black
138.672,41.504,33.203,51.758,52.734,black
-74.219,38.086,36.133,-17.09,13.184,black
48.34,37.598,30.762,21.973,34.18,black
150.879,36.133,29.785,66.406,106.445,black
13.672,33.203,34.668,31.25,93.75,black
-90.332,35.156,31.738,-16.113,22.949,black
79.59,34.18,28.32,38.574,26.367,black
-21.484,33.691,30.762,-2.93,3.418,black
135.742,32.227,29.297,55.664,13.184,black
136.23,32.715,29.785,67.871,17.578,black
-42.969,34.18,34.18,13.672,-2.93,black
-62.988,29.785,36.133,-0.977,-37.109,black
155.273,31.25,32.227,77.148,-1.465,black
8.789,30.762,34.18,17.578,17.09,black
-60.059,30.273,35.645,-14.648,30.762,black
157.715,32.227,31.25,65.43,13.672,black
40.527,30.762,33.691,33.203,26.855,black
-79.59,32.715,32.227,-14.648,-20.508,black
145.996,31.25,30.273,63.477,4.395,black
105.957,34.668,30.762,53.711,2.441,black
-43.457,35.645,30.273,0,78.613,black
-27.832,33.203,31.738,2.93,32.227,black
121.094,31.25,31.25,57.129,21.973,black
149.414,32.715,29.785,65.43,56.641,black
-62.012,34.18,29.785,-6.836,72.266,black
61.523,34.18,25.879,36.133,20.996,black
142.09,32.715,27.344,74.707,-8.301,black
-0.977,33.691,29.785,29.297,29.785,black
-81.055,33.691,31.738,-14.16,-19.531,black
166.504,33.203,31.25,74.219,37.109,black
73.242,32.715,35.156,43.945,21.973,black
-2.93,37.109,31.25,9.766,-48.34,black
137.695,35.156,29.297,70.801,0,black
113.281,34.668,30.762,71.289,78.125,black
-45.898,36.133,31.25,9.766,47.363,black
100.586,32.227,28.809,58.594,23.438,black
146.484,32.227,30.762,82.031,91.797,black
-9.766,34.668,31.738,23.438,39.551,black
-57.617,30.762,30.762,-6.348,-26.855,black
71.289,28.809,30.273,36.133,8.301,black
171.387,28.809,31.738,82.52,13.184,black
-73.242,30.273,35.645,-11.23,-15.625,black
19.531,30.273,33.203,25.391,-17.09,black
167.48,31.25,32.227,76.66,30.273,black
-15.137,31.738,37.598,12.207,59.082,black
125.977,28.809,34.668,63.965,43.457,black
120.117,29.785,34.18,65.43,39.551,black
-46.875,33.203,37.109,6.348,70.801,black
149.902,30.762,36.133,74.219,-12.695,black
-4.883,30.762,35.156,15.625,-14.16,black
-72.266,31.25,36.133,-9.277,58.105,black
145.02,29.297,35.156,67.871,107.91,black
28.32,30.762,35.645,26.855,90.332,black
1.465,31.25,36.133,-1.465,28.32,black
145.02,30.273,35.645,58.105,9.766,black
88.379,34.668,35.645,48.828,30.273,black
-75.684,35.156,37.598,-8.301,36.133,black
-49.805,32.715,35.645,-10.254,63.477,black
103.516,31.25,31.25,40.527,79.59,black
119.629,33.203,33.203,50.781,63.965,black
-54.688,33.691,34.18,-11.719,13.184,black
70.312,30.762,35.645,37.598,30.273,black
144.043,29.785,35.156,66.895,19.043,black
-0.977,30.273,34.668,12.695,59.082,black
-75.195,29.785,34.668,-21.973,82.031,black
31.25,29.785,32.715,18.066,13.672,black
158.203,30.762,30.273,69.824,20.02,black
52.734,33.203,35.645,39.551,43.457,black
-75.195,34.18,36.621,-10.742,7.324,black
-10.742,34.668,32.715,1.465,48.34,black
143.555,33.691,31.738,61.523,52.246,black
106.934,36.621,33.691,61.035,30.273,black
-54.199,40.039,36.133,-5.859,30.762,black
-44.434,38.574,35.156,-12.207,-17.09,black
107.422,38.574,34.668,45.41,-23.926,black
-28.32,39.551,35.156,13.672,-12.695,black
-72.266,38.086,37.598,-9.277,-0.977,black
55.664,36.133,36.133,30.762,-3.418,black
20.508,37.598,33.203,24.414,56.152,black
20.508,31.738,32.715,6.836,35.645,black
146.484,33.691,32.227,60.059,59.57,black
49.805,31.738,36.133,33.691,41.016,black
-80.078,31.25,35.645,-14.648,8.301,black
-31.25,32.227,33.691,-5.371,25.391,black
95.215,31.25,32.715,47.852,39.551,black
-66.406,30.762,33.691,-12.207,30.762,black
-64.941,28.809,32.227,-15.625,40.039,black
72.266,29.785,31.25,35.645,40.039,black
127.441,33.691,33.203,56.641,66.895,black
-20.508,36.621,33.691,5.371,1.465,black
-74.219,34.18,31.25,-12.695,-35.156,black
33.203,33.203,30.762,29.785,-37.109,black
141.113,33.691,34.18,70.801,-8.789,black
20.508,33.691,35.156,28.32,-12.207,black
-82.031,36.621,30.762,-23.926,-35.645,black
147.949,36.133,30.273,51.27,18.066,black
69.824,35.645,29.297,39.551,4.883,black
-82.031,38.574,31.738,-12.695,11.719,black
-37.598,39.062,31.25,0.977,25.391,black
110.84,37.598,29.785,49.316,53.711,black
-45.898,34.668,30.273,0.977,22.461,black
-56.641,38.574,28.809,-13.672,33.691,black
76.172,36.133,30.762,36.621,2.93,black
-83.984,37.598,35.156,-8.789,46.875,black
26.855,34.668,34.18,28.32,-0.488,black
43.457,36.621,30.762,36.133,-18.066,black
-69.336,34.668,33.691,-12.695,-62.5,black
1.953,32.715,32.227,10.254,-5.859,black
140.137,33.203,28.809,67.871,15.137,black
89.355,33.691,31.25,61.523,-0.488,black
-59.57,34.18,35.645,1.465,52.246,black
-34.668,34.668,35.645,-12.207,19.531,black
109.863,31.738,36.621,48.34,11.719,black
124.512,28.809,34.668,65.918,34.18,black
-37.109,28.32,32.227,7.324,7.324,black
-48.34,32.227,31.25,0,-19.531,black
79.59,31.25,31.738,34.18,-1.465,black
19.043,28.32,32.715,7.812,44.434,black
151.367,28.32,32.715,70.312,-6.348,black
47.363,30.762,35.156,43.457,-16.113,black
-83.496,29.785,36.621,-4.883,-6.348,black
-16.113,29.785,34.18,5.371,-10.742,black
138.672,33.691,37.109,57.129,-3.906,black
105.469,35.156,39.062,58.105,16.602,black
-54.199,34.18,34.18,-0.488,69.824,black
-44.922,29.785,31.738,-6.348,79.59,black
89.355,29.297,30.762,43.457,38.086,black
-33.691,31.738,35.645,-2.93,7.812,black
-75.684,32.715,33.691,-21.973,-7.324,black
144.531,28.809,30.762,63.477,39.551,black
15.625,31.25,34.18,28.809,57.617,black
-79.59,32.715,36.133,-10.742,38.574,black
10.254,28.809,33.691,11.719,29.785,black
-75.684,35.645,29.297,-18.066,-13.672,black
-30.273,34.668,27.344,-9.766,-17.09,black
119.141,33.691,27.832,45.898,50.293,black
107.422,34.18,31.25,47.852,68.848,black
-59.57,32.715,34.668,-9.766,-7.812,black
-64.453,32.227,34.668,-12.207,-12.207,black
79.59,33.203,32.715,41.016,-13.184,black
139.16,35.156,29.785,68.359,14.648,black
-20.508,36.133,31.738,14.16,7.812,black
-80.566,35.645,34.18,-11.23,-20.508,black
31.25,35.645,34.668,29.785,16.602,black
147.461,36.621,32.715,72.266,48.34,black
33.203,38.086,33.203,33.203,20.02,black
-80.566,36.133,34.18,-13.672,-11.23,black
-5.371,35.645,32.227,5.371,-35.645,black
141.602,35.156,31.738,61.523,0.977,black
85.449,35.645,30.273,46.387,46.875,black
-65.43,38.086,31.738,-16.113,7.324,black
-31.25,36.621,34.668,-6.348,-24.414,black
114.746,34.668,34.18,52.246,12.695,black
124.023,36.621,35.156,59.57,13.672,black
-51.758,39.551,35.156,-9.766,-12.695,black
81.543,36.621,36.621,41.016,16.113,black
148.438,34.668,40.527,78.613,53.223,black
-7.812,34.668,39.062,21.973,72.754,black
-80.078,34.18,35.645,-8.301,35.645,black
145.996,35.156,35.156,74.219,16.602,black
41.992,34.18,36.133,38.574,11.719,black
-74.707,34.668,36.133,-11.23,2.93,black
-11.719,32.227,34.668,7.324,74.707,black
94.727,30.762,35.156,46.387,35.156,black
-51.27,32.227,37.598,-13.672,-5.371,black
105.469,31.738,36.133,44.922,18.066,black
145.996,34.668,34.18,64.941,41.504,black
-21.484,33.691,35.645,10.742,60.059,black
150.391,34.668,34.668,68.359,53.223,black
19.531,31.738,35.645,17.578,30.273,black
-77.637,30.762,38.086,-20.508,1.953,black
14.648,33.203,37.109,12.695,5.371,black
148.926,33.203,35.645,61.523,58.105,black
55.176,33.203,38.574,38.574,77.148,black
-82.52,33.203,37.598,-10.742,-10.742,black
-66.895,28.32,33.203,-9.277,-27.832,black
132.324,32.227,35.645,65.43,-17.09,black
-66.895,35.645,37.598,-9.277,-32.227,black
61.523,36.133,36.621,36.621,-8.301,black
40.527,36.621,37.109,29.785,27.344,black
13.672,32.227,39.062,17.578,3.418,black
144.531,30.762,40.039,71.777,20.508,black
62.5,32.715,41.504,56.641,28.32,black
-84.473,32.715,42.48,-2.441,9.766,black
-37.598,36.621,41.016,-0.977,34.18,black
120.117,37.598,38.574,62.012,45.898,black
120.117,35.156,40.039,72.266,21.973,black
-50.293,36.133,39.551,2.441,24.902,black
-57.617,39.062,36.621,-5.859,29.297,black
84.473,38.574,37.109,42.48,33.691,black
153.32,34.18,37.109,67.871,64.941,black
-9.766,33.203,39.551,19.043,21.973,black
-80.566,31.25,39.062,-11.719,4.395,black
37.598,30.273,35.645,25.391,11.719,black
166.504,38.086,35.156,70.801,27.832,black
55.176,37.598,38.086,38.574,76.66,black
-9.277,34.18,32.715,12.207,-12.207,black
130.859,33.691,33.203,62.988,65.43,black
82.031,34.18,36.133,48.828,65.918,black
-70.801,32.715,37.109,-10.254,88.867,black
-41.504,31.738,38.086,-5.859,87.402,black
105.469,33.203,36.133,46.387,49.805,black
124.023,31.738,31.738,61.523,49.805,black
-37.598,33.203,30.762,5.371,75.684,black
-64.453,37.109,35.156,-10.254,33.691,black
62.5,37.109,35.156,39.551,27.832,black
150.879,34.18,33.203,77.148,33.203,black
1.465,30.273,35.645,25.879,38.086,black
-80.566,28.32,36.621,-18.066,53.223,black
148.438,31.25,36.621,67.871,15.625,black
-77.637,31.25,35.645,-19.531,-4.395,black
-20.508,32.715,37.109,-2.441,-27.344,black
127.93,33.203,35.156,48.828,13.672,black
87.891,30.273,32.715,44.434,47.852,black
-72.266,30.762,32.715,-12.207,43.457,black
-45.41,30.273,32.715,-7.812,56.152,black
98.633,30.762,36.621,45.898,61.035,black
134.277,33.203,38.574,62.988,27.344,black
-18.555,36.621,37.598,7.812,24.902,black
49.316,33.203,36.133,24.414,44.434,black
150.391,35.645,34.668,63.477,54.199,black
-80.566,36.621,38.086,-16.113,73.242,black
74.219,37.598,39.062,41.504,71.289,black
-73.242,37.598,41.504,-5.859,39.062,black
-32.227,35.156,39.062,-4.883,-1.953,black
123.535,34.18,35.645,56.152,15.625,black
-56.641,31.738,39.062,-13.184,-40.039,black
88.867,30.762,39.551,45.41,-6.836,black
144.531,30.273,38.574,69.824,-10.742,black
-20.996,31.738,38.086,10.254,-30.762,black
-85.938,34.18,35.645,-16.113,-4.883,black
35.156,31.738,33.203,23.926,20.02,black
157.715,30.273,31.738,72.266,59.082,black
35.645,34.18,33.691,34.18,-8.789,black
4.395,29.785,35.156,5.859,0,black
143.066,31.738,32.227,63.477,22.461,black
80.566,31.25,33.203,51.27,6.836,black
-65.918,29.297,35.156,-14.16,-3.906,black
-33.203,29.297,32.227,-13.184,7.812,black
111.328,27.832,30.762,44.434,-8.301,black
114.258,27.344,32.227,52.734,-14.648,black
-62.012,29.297,32.715,-16.602,34.668,black
76.66,31.25,29.785,33.203,19.043,black
143.555,27.344,31.738,58.594,51.27,black
-79.59,33.203,32.227,-15.137,16.113,black
27.344,34.668,32.227,9.766,-43.945,black
28.809,30.273,34.668,20.02,37.109,black
-96.191,30.273,32.227,-23.926,28.809,black
-22.949,34.18,27.832,-0.488,38.086,black
131.836,35.156,27.344,52.246,76.66,black
87.402,34.18,33.691,43.945,32.227,black
-68.359,36.133,35.645,-13.672,-17.09,black
-40.527,35.156,35.156,-17.09,21.973,black
129.883,33.203,32.715,66.406,25.391,black
-33.691,31.25,34.668,0.977,13.184,black
-72.266,29.785,35.156,-20.508,6.348,black
149.902,30.273,33.691,67.383,34.668,black
7.812,29.297,34.18,18.066,23.926,black
12.695,32.715,35.645,6.836,0.977,black
154.785,33.203,33.691,61.523,25.391,black
-73.242,32.715,35.156,-11.719,33.203,black
-20.996,36.133,33.691,-0.488,46.387,black
122.559,33.203,33.203,62.5,64.941,black
100.586,33.691,33.691,65.918,37.109,black
-54.199,35.156,36.621,-0.488,-20.996,black
-55.176,31.25,38.086,-9.766,1.953,black
133.789,29.785,33.691,70.312,30.273,black
-25.391,27.832,35.156,8.789,35.645,black
26.855,32.715,37.598,29.297,44.434,black
135.742,31.738,35.156,69.336,67.871,black
17.578,34.18,33.203,25.879,82.031,black
-70.312,34.668,34.18,-16.113,7.324,black
74.707,29.785,36.133,37.598,22.949,black
-82.52,34.668,36.133,-18.066,20.508,black
-45.898,31.738,37.109,-15.625,42.48,black
106.934,34.668,33.203,43.457,73.73,black
-50.293,36.133,34.18,-9.766,49.805,black
138.184,34.18,38.574,69.824,-54.199,black
-15.137,35.156,38.574,21.484,-55.176,black
-76.66,34.668,35.645,-19.043,-25.879,black
37.109,33.203,35.645,15.137,-5.371,black
152.832,31.738,37.109,63.477,-20.02,black
-78.613,33.203,38.086,-16.113,13.184,black
-5.371,34.18,36.621,-2.93,-31.25,black
140.137,31.25,36.621,59.082,6.836,black
78.613,34.18,33.691,49.316,26.855,black
-71.777,33.691,35.645,-9.766,-18.066,black
-45.898,32.715,39.062,-2.93,-32.227,black
133.789,33.691,39.062,66.406,70.312,black
-32.715,36.621,40.039,4.395,74.219,black
-61.523,33.691,39.062,-8.789,29.785,black
71.289,31.738,39.551,48.828,59.082,black
155.762,31.25,39.062,87.891,52.734,black
6.836,33.691,39.062,35.645,20.02,black
-72.754,36.621,37.109,-11.23,22.461,black
22.461,36.621,36.621,14.648,49.316,black
144.531,34.668,37.109,63.965,38.574,black
51.27,35.156,38.086,29.785,36.621,black
131.836,35.645,33.203,46.387,-13.184,black
-67.383,34.668,34.18,-6.348,18.066,black
104.492,39.062,33.203,43.945,67.871,black
133.789,35.156,32.715,62.012,32.227,black
-40.527,35.645,32.227,8.301,6.348,black
-77.637,35.645,31.25,-14.16,10.742,black
54.688,34.668,31.738,24.414,10.742,black
3.906,34.668,34.18,25.879,82.031,black
65.43,38.574,35.156,45.41,11.23,black
-74.707,38.574,33.203,-20.508,-8.789,black
-24.414,40.039,32.227,-5.859,40.527,black
105.469,34.668,35.645,47.852,18.555,black
-54.688,34.668,35.645,-6.348,-8.789,black
81.543,35.156,33.691,38.574,54.688,black
135.254,36.621,35.156,62.012,59.57,black
-20.02,35.645,32.715,3.906,-31.738,black
-73.242,34.18,31.25,-22.461,40.039,black
46.875,35.156,31.738,20.996,63.477,black
156.738,35.645,30.762,70.312,19.043,black
35.645,36.621,31.738,37.598,11.23,black
-63.477,37.598,36.133,-4.395,-5.859,black
12.207,36.621,33.691,14.648,16.113,black
85.449,39.062,31.738,40.527,-23.926,black
-68.359,36.133,35.645,-11.23,-10.742,black
-39.062,31.738,36.133,-5.371,-0.488,black
110.352,33.203,33.691,49.805,0.488,black
-37.109,34.668,35.645,10.742,46.875,black
-51.27,37.109,35.156,1.465,32.715,black
82.031,38.086,37.109,40.039,41.992,black
5.859,37.109,31.25,9.277,-9.277,black
-67.383,35.645,33.203,-23.926,40.039,black
33.691,33.203,30.762,12.207,32.715,black
154.785,31.25,33.691,62.988,6.836,black
-81.055,33.203,33.691,-12.207,27.344,black
-14.16,30.762,36.133,7.812,-12.207,black
87.402,34.18,31.738,44.922,62.988,black
-51.758,32.227,31.25,-19.531,9.766,black
95.703,31.738,32.227,42.969,-6.836,black
117.188,36.133,35.156,64.941,30.762,black
-45.898,34.668,36.621,8.789,56.641,black
-72.266,34.668,37.598,-8.301,7.324,black
151.855,36.621,32.227,69.824,9.277,black
14.16,39.062,35.156,26.855,33.203,black
-75.195,38.086,35.645,-8.301,15.137,black
162.598,38.086,36.621,69.824,8.301,black
61.523,36.621,39.062,43.457,-3.906,black
-79.102,35.156,38.574,-6.836,22.949,black
-15.625,35.645,36.133,7.812,12.695,black
133.301,35.645,37.109,63.477,13.672,black
98.633,37.109,38.574,57.129,19.531,black
-69.824,36.133,38.574,-9.277,38.086,black
-61.523,35.645,37.109,-17.09,21.973,black
88.379,37.598,33.203,36.133,-35.645,black
131.836,34.668,33.203,65.43,28.809,black
-61.523,38.086,31.738,-18.066,6.348,black
58.594,37.598,33.203,31.738,32.227,black
154.785,34.18,35.156,75.195,67.871,black
-78.613,34.18,34.668,-16.113,31.738,black
2.93,36.621,33.691,10.254,18.066,black
-69.336,39.551,32.227,-11.719,44.434,black
-26.367,35.645,34.668,0.977,16.602,black
128.906,34.18,33.691,59.082,41.016,black
126.465,37.598,34.668,69.336,50.293,black
-44.922,37.598,39.062,11.23,-7.812,black
-55.176,34.668,39.062,-8.789,-39.062,black
86.914,35.156,36.133,39.062,32.227,black
145.996,34.668,34.18,72.266,74.707,black
-14.16,32.227,35.645,17.09,5.371,black
163.574,36.621,31.738,71.289,20.508,black
46.875,37.109,36.133,37.109,40.039,black
-65.918,34.18,37.109,-6.836,49.805,black
6.348,32.715,36.133,12.695,40.039,black
148.438,33.203,34.668,68.359,14.16,black
97.168,35.645,33.203,57.129,54.199,black
-69.336,34.18,34.668,-4.395,94.727,black
-48.34,32.227,35.156,-7.324,65.43,black
101.562,33.203,34.668,50.781,18.066,black
118.652,33.203,35.156,65.918,56.152,black
-46.875,32.227,37.598,2.441,43.457,black
-66.406,30.762,39.062,-16.602,7.812,black
68.359,32.227,35.645,29.297,56.641,black
148.926,34.668,33.203,64.453,94.238,black
27.832,29.297,36.621,27.832,11.23,black
50.781,33.203,34.18,33.691,3.418,black
-31.738,30.762,38.574,-8.301,-17.09,black
119.141,28.809,35.645,53.711,-22.461,black
-67.871,34.18,39.551,-2.93,-34.668,black
-50.293,33.691,36.133,-3.418,10.742,black
-70.312,32.227,35.156,-16.113,-8.789,black
59.57,34.18,37.109,31.25,33.691,black
149.902,36.133,36.621,69.336,5.859,black
20.508,35.645,37.109,20.996,-14.648,black
-62.5,35.645,40.039,-11.23,24.902,black
19.531,34.668,40.039,23.926,33.203,black
136.719,33.691,37.598,79.102,23.926,black
53.711,36.621,38.086,56.641,58.105,black
-23.926,32.227,34.668,4.395,0.488,black
107.91,33.203,36.133,51.27,-30.273,black
-48.828,35.645,38.574,-5.859,6.836,black
144.043,37.598,36.621,72.266,1.465,black
-6.348,35.645,37.598,16.602,17.578,black
-64.941,35.645,37.598,-12.207,-20.508,black
51.27,34.668,34.668,28.809,8.301,black
155.273,33.691,34.18,71.289,30.273,black
25.391,34.18,37.109,37.109,-3.906,black
-86.426,33.691,37.598,-5.859,45.898,black
-8.301,35.156,34.668,13.184,8.301,black
137.695,38.086,32.227,65.918,-5.371,black
-75.684,32.715,38.574,-8.789,26.367,black
-29.785,35.645,37.598,-2.441,8.301,black
114.746,36.133,33.203,45.41,32.227,black
116.211,33.691,36.133,57.617,84.961,black
-46.875,34.668,37.598,1.465,71.289,black
-66.406,37.598,36.133,-5.371,53.711,black
68.848,38.574,34.18,45.898,47.852,black
-1.465,36.133,36.621,18.555,37.109,black
159.18,37.109,36.133,80.566,0.488,black
48.828,36.133,34.668,40.039,48.828,black
2.93,36.621,36.133,9.766,15.625,black
140.137,31.738,32.715,61.523,62.012,black
75.195,29.297,32.715,44.434,86.426,black
-79.102,28.809,36.133,-7.812,71.289,black
-47.363,28.809,36.621,-7.812,60.547,black
106.934,30.273,35.156,39.551,55.176,black
130.859,31.738,36.133,57.617,88.867,black
-42.969,32.227,35.156,-0.488,23.926,black
-71.777,28.809,34.18,-10.254,-4.883,black
58.594,28.32,34.18,43.457,57.617,black
145.508,28.809,33.691,75.195,-20.508,black
5.371,27.832,37.109,24.414,-58.105,black
-79.59,29.297,37.109,-11.23,25.879,black
13.184,33.203,34.18,20.508,51.758,black
142.09,32.715,35.645,74.707,16.602,black
-23.438,31.25,34.668,-7.812,-11.23,black
127.93,30.273,33.203,47.852,38.086,black
-60.059,33.691,35.156,-3.906,113.281,black
-54.199,33.203,36.133,-16.602,62.5,black
134.766,32.227,35.156,62.988,9.277,black
-24.902,32.715,37.109,1.953,-16.602,black
51.27,34.668,34.18,32.227,41.016,black
154.297,33.203,34.668,72.266,45.41,black
-91.797,31.25,36.621,-14.648,9.766,black
-15.137,29.297,37.598,7.812,-24.902,black
133.789,29.785,36.621,62.988,-24.902,black
-64.453,38.574,39.062,-14.16,31.738,black
-18.555,34.18,37.109,-5.371,43.945,black
126.953,31.738,36.133,49.316,44.922,black
116.211,37.598,33.691,54.199,27.832,black
-48.828,37.109,38.574,-7.812,-28.32,black
88.379,37.598,39.551,46.875,-61.035,black
144.043,39.062,36.621,77.148,-6.836,black
-5.859,40.039,35.645,22.949,52.734,black
-63.477,38.574,36.133,-10.254,-20.508,black
51.758,37.109,35.645,21.973,0,black
164.062,35.645,37.109,69.824,28.809,black
36.133,33.691,36.133,29.297,33.691,black
-82.52,31.738,32.715,-20.996,-3.418,black
130.371,31.25,34.18,56.152,0,black
77.637,31.738,33.203,49.316,47.852,black
-76.172,28.809,34.668,-4.395,-7.812,black
-45.41,28.809,36.621,-6.836,-27.344,black
109.863,34.18,35.156,47.852,55.176,black
123.047,35.156,34.18,57.129,100.586,black
-45.41,32.227,37.109,1.953,56.152,black
-69.336,32.715,36.621,-11.719,83.984,black
64.453,32.227,35.645,29.297,40.039,black
139.648,34.668,33.203,62.988,-17.578,black
-14.648,33.691,34.668,14.648,18.555,black
-90.82,29.785,36.133,-24.414,-16.602,black
146.484,31.738,32.227,66.406,67.871,black
48.828,33.691,30.762,28.809,-10.742,black
-15.137,30.762,34.668,5.859,-9.766,black
138.184,35.645,34.18,55.176,-4.395,black
98.633,35.156,37.109,43.945,-6.348,black
-59.57,34.18,41.504,-13.184,-20.02,black
-40.527,35.645,39.062,-13.184,-3.906,black
110.352,35.156,33.691,42.969,23.926,black
144.531,33.203,34.18,63.965,62.988,black
-71.289,31.25,36.133,-7.812,12.207,black
151.367,31.738,35.156,69.336,46.875,black
19.043,33.203,40.039,30.762,57.129,black
-73.242,34.18,41.016,-13.672,20.996,black
18.066,34.18,36.621,16.602,-14.648,black
149.902,34.668,36.133,71.777,-3.418,black
55.176,32.227,40.039,39.551,23.926,black
-81.543,30.273,40.039,-20.02,79.102,black
-22.461,33.203,37.109,-7.812,41.504,black
136.23,33.691,35.156,48.34,5.859,black
113.77,34.668,34.18,47.363,0.488,black
-60.059,36.133,33.203,-9.277,10.742,black
-56.641,34.18,36.133,-10.254,60.547,black
95.215,35.645,37.598,41.504,68.359,black
147.461,37.598,33.691,64.941,40.039,black
-63.477,35.645,34.668,-17.578,-12.207,black
50.781,35.156,35.156,28.32,-7.812,black
166.016,35.156,33.691,81.543,50.781,black
-70.801,33.203,38.086,-11.23,30.762,black
11.719,33.691,36.133,21.484,22.949,black
149.414,32.227,33.691,76.66,70.312,black
74.707,31.738,36.621,52.246,54.688,black
-70.312,30.762,39.062,2.441,-9.766,black
-28.809,31.25,36.621,3.906,-15.137,black
116.699,32.227,35.645,49.316,29.785,black
119.141,34.668,34.668,55.176,19.043,black
-51.758,33.691,35.645,-0.977,-17.578,black
66.895,29.785,33.691,26.855,42.48,black
-5.371,31.738,36.133,11.23,27.832,black
-74.219,29.297,35.645,-18.066,16.113,black
34.18,31.25,35.645,21.484,21.973,black
148.926,33.203,32.227,63.965,-8.789,black
38.086,32.715,34.668,32.227,-27.344,black
-1.953,36.133,37.109,6.348,-22.461,black
127.441,33.691,36.621,61.523,-15.137,black
68.848,31.738,34.668,48.34,16.602,black
-43.945,33.691,34.668,-1.465,-2.93,black
98.633,27.344,34.668,54.199,-1.465,black
122.07,30.273,30.762,66.895,64.941,black
-41.992,36.133,30.762,0.488,9.766,black
60.547,37.109,32.715,25.879,38.574,black
147.461,32.227,33.691,61.523,33.691,black
-81.055,33.203,37.109,-15.625,37.598,black
23.438,34.668,35.156,12.695,57.617,black
63.477,34.18,38.574,34.18,86.426,black
-74.707,33.203,40.039,-19.531,40.039,black
-15.625,32.715,34.668,-2.441,-6.348,black
133.789,36.133,32.227,62.012,39.062,black
99.121,38.086,33.691,59.082,31.738,black
-63.965,36.133,36.621,-0.977,25.879,black
104.004,31.738,37.109,52.734,41.016,black
140.137,34.668,39.551,65.918,7.812,black
-62.5,34.18,40.039,-15.625,39.551,black
45.898,29.297,37.598,23.926,1.465,black
142.578,32.227,35.645,68.359,29.785,black
-83.496,34.668,37.598,-7.812,18.066,black
8.789,32.715,34.668,18.555,89.844,black
145.508,35.156,30.273,66.895,68.359,black
68.848,36.133,29.785,46.387,35.645,black
-68.359,35.645,34.668,-12.207,36.133,black
-25.391,37.109,33.691,-1.465,5.859,black
-58.105,36.133,30.273,-9.766,4.395,black
82.031,38.086,31.25,42.48,20.508,black
133.301,35.156,33.691,74.219,64.453,black
-65.918,34.18,28.809,-21.484,11.719,black
143.066,33.691,29.297,63.965,2.93,black
19.043,30.762,30.762,21.973,64.453,black
129.883,28.32,31.738,54.199,14.16,black
-81.543,29.785,36.621,-14.16,-50.293,black
107.422,30.762,35.645,48.828,-2.93,black
101.562,29.297,37.598,59.57,0,black
-64.941,28.809,39.551,-2.93,40.039,black
-70.312,31.738,39.062,-13.184,65.918,black
-5.859,31.25,37.598,23.438,-6.348,black
21.484,31.738,35.156,11.23,23.926,black
145.02,33.203,34.18,60.547,14.648,black
48.828,35.156,34.18,25.391,32.715,black
-79.59,35.645,36.621,-20.508,24.902,black
138.184,38.574,31.25,49.805,88.379,black
100.098,35.156,31.738,43.945,53.711,black
123.535,36.621,34.18,55.664,69.336,black
-39.062,37.598,35.645,-7.324,6.836,black
44.922,32.715,32.715,22.949,16.602,black
135.742,33.203,31.25,65.918,36.133,black
-83.008,34.668,35.645,-16.602,-23.926,black
6.348,32.227,33.691,17.578,-3.418,black
136.719,30.762,31.738,66.895,9.766,black
45.41,27.344,35.156,35.156,42.969,black
-88.379,29.297,37.109,-16.602,65.43,black
-25.879,31.738,34.18,3.418,22.461,black
122.559,30.273,33.691,61.523,-14.648,black
98.633,29.297,34.18,54.199,32.715,black
87.891,27.344,37.109,41.504,47.852,black
137.207,28.809,36.621,62.988,64.941,black
-17.09,28.809,36.133,2.93,24.902,black
-70.312,24.902,35.645,-26.855,-15.137,black
46.875,28.32,36.621,19.531,26.855,black
26.855,29.297,41.992,24.902,-2.441,black
-68.848,30.762,40.527,-10.254,-20.02,black
22.949,33.203,37.109,11.719,-28.32,black
165.527,31.25,38.086,63.477,6.348,black
80.566,33.691,37.598,46.875,53.711,black
-76.172,34.668,37.598,-7.324,3.418,black
-33.691,29.785,39.551,2.441,12.207,black
108.398,31.738,38.574,56.152,9.277,black
113.281,35.156,38.574,64.941,-28.32,black
-63.477,31.738,40.527,-11.719,0,black
80.078,33.691,41.016,44.434,18.066,black
-1.953,32.715,42.969,27.344,38.086,black
-70.801,32.715,42.48,-2.93,68.359,black
41.992,32.715,41.504,35.645,74.219,black
171.387,32.227,39.062,81.055,61.035,black
62.012,33.203,39.551,40.039,-14.648,black
-69.824,33.691,41.016,-9.277,6.348,black
-9.277,33.691,39.551,9.766,33.691,black
142.09,33.691,38.574,62.988,43.945,black
-65.43,34.18,37.598,-12.695,14.16,black
-33.203,36.621,38.086,-5.371,32.227,black
114.258,35.645,38.574,55.664,24.414,black
134.277,37.109,37.109,68.359,41.992,black
-25.879,39.062,35.645,5.371,78.125,black
-46.387,38.574,35.156,-8.789,33.691,black
83.984,37.109,36.133,42.969,34.18,black
158.203,35.645,36.621,75.684,58.594,black
4.883,35.156,36.133,26.367,37.109,black
-74.707,34.668,37.598,-8.789,64.941,black
21.973,35.156,35.156,16.113,55.664,black
147.949,37.109,33.691,67.871,61.035,black
51.758,35.645,36.621,40.527,24.902,black
-80.566,34.18,33.691,-11.719,-49.316,black
-19.531,35.645,35.645,7.324,-34.18,black
127.93,32.227,35.156,68.848,15.137,black
97.656,35.645,32.227,65.43,66.895,black
-64.941,39.062,36.621,-3.418,23.438,black
-58.105,35.645,39.062,-15.137,-28.809,black
89.355,34.668,36.621,38.574,1.465,black
138.672,33.691,37.598,67.871,62.988,black
-20.508,33.691,41.992,10.742,60.059,black
-67.383,35.156,37.598,-20.996,49.805,black
55.176,36.621,31.738,24.902,92.285,black
14.648,29.297,35.156,26.367,60.547,black
-79.59,30.762,35.645,-9.277,30.273,black
10.254,31.25,35.156,17.09,31.25,black
140.137,30.273,34.18,68.359,19.043,black
60.547,33.691,34.668,48.34,-4.883,black
-33.691,32.227,39.551,9.766,-39.062,black
116.211,32.715,36.621,57.129,-52.246,black
110.84,32.715,37.598,58.594,41.016,black
-56.152,33.203,35.645,0,5.859,black
86.914,33.691,36.133,46.875,-21.484,black
146.484,37.109,35.156,71.777,36.133,black
-14.16,37.109,38.574,15.625,32.227,black
46.875,36.621,35.156,32.715,26.855,black
158.691,37.109,35.156,78.125,11.23,black
38.574,37.109,35.156,35.645,-7.812,black
-72.266,35.156,35.645,-6.348,32.715,black
143.066,32.715,36.133,66.406,-1.465,black
87.891,34.668,35.645,47.363,10.742,black
-58.594,38.574,36.621,-7.324,16.113,black
118.164,37.598,36.621,54.688,30.762,black
125,37.598,34.668,65.43,65.43,black
-42.969,38.574,33.203,0.977,42.969,black
-60.059,37.109,34.668,-15.137,56.641,black
69.824,34.668,31.738,33.203,58.105,black
-14.16,34.668,35.156,15.625,-27.832,black
-73.242,37.109,33.203,-13.672,3.906,black
33.203,35.645,32.227,23.438,41.992,black
150.879,34.668,33.691,74.219,50.293,black
46.875,36.133,33.691,39.551,44.922,black
-11.23,33.203,35.156,5.371,-43.457,black
89.355,32.715,31.25,54.688,27.344,black
-70.312,34.18,31.738,-4.395,-5.371,black
-46.875,33.691,30.762,-4.395,6.836,black
98.633,32.715,30.762,47.363,52.246,black
118.652,35.645,33.203,64.453,73.242,black
-68.848,35.156,33.203,-12.207,-19.531,black
61.035,33.203,30.762,39.062,-8.789,black
14.16,31.738,33.203,27.344,4.883,black
-79.102,31.25,31.738,-12.207,26.367,black
15.625,30.762,29.297,12.695,-15.625,black
155.273,33.203,27.344,65.43,-15.137,black
62.988,35.645,29.785,38.574,32.227,black
-76.66,33.203,33.203,-8.789,-34.18,black
-23.926,29.785,33.203,9.766,-23.926,black
124.512,33.691,32.715,54.688,44.434,black
105.469,37.109,31.738,47.852,16.113,black
-45.898,34.668,32.715,-8.301,7.812,black
-43.457,35.156,32.227,-12.695,37.109,black
92.773,38.086,30.762,45.41,29.297,black
-22.461,33.203,37.109,17.578,43.457,black
-84.473,28.809,35.156,-17.578,35.156,black
40.527,28.32,31.25,25.879,54.199,black
148.438,30.762,32.227,70.312,112.305,black
13.184,34.668,32.715,21.484,80.078,black
20.02,40.039,33.203,4.883,21.973,black
155.762,39.062,32.715,57.129,-20.02,black
-22.461,37.109,35.645,-7.324,17.09,black
-46.875,35.156,35.156,-1.953,44.434,black
-59.082,32.715,35.156,-11.719,64.453,black
141.113,33.691,30.273,53.223,61.035,black
-81.543,35.156,38.086,-15.625,52.246,black
25.879,31.25,35.156,20.996,45.41,black
151.367,31.25,34.18,68.848,7.812,black
