timestamps,TP9,AF7,AF8,TP10,Right AUX
1586550062.633,63.477,29.785,33.691,26.367,43.945
1586550062.636,165.527,31.738,29.785,66.895,4.395
1586550062.640,2.441,34.668,31.250,15.625,3.418
1586550062.644,-89.844,33.203,32.715,-20.020,45.410
1586550062.648,32.227,31.738,34.668,27.344,35.645
1586550062.652,169.434,32.227,34.668,76.660,45.898
1586550062.656,55.664,32.227,32.227,31.738,53.711
1586550062.660,-83.008,34.180,35.645,-20.996,-7.812
1586550062.664,-23.926,31.738,36.133,-7.812,-39.062
1586550062.668,136.719,27.344,32.227,50.293,62.988
1586550062.672,105.957,34.668,31.738,57.617,36.621
1586550062.676,-67.383,37.598,29.785,-1.953,-38.574
1586550062.679,-55.664,36.621,29.785,-18.066,-18.066
1586550062.683,104.004,37.598,29.297,29.785,57.617
1586550062.687,148.438,34.668,29.785,54.199,76.660
1586550062.691,-35.156,31.738,35.645,9.766,36.133
1586550062.695,-83.984,34.668,32.715,-10.254,10.254
1586550062.699,49.805,36.621,29.785,18.066,-15.625
1586550062.703,163.574,37.598,30.762,58.105,50.781
1586550062.707,27.344,37.598,29.297,21.973,114.746
1586550062.711,-83.984,37.109,29.785,-13.672,57.617
1586550062.715,11.719,36.133,30.273,15.137,11.230
1586550062.719,161.133,33.691,27.344,73.242,20.508
1586550062.722,65.430,32.715,26.855,49.805,29.297
1586550062.726,-86.914,34.180,28.320,-18.555,5.859
1586550062.730,-30.762,37.109,30.273,-5.859,3.418
1586550062.734,123.535,34.668,30.273,54.199,51.758
1586550062.738,109.375,31.738,30.273,55.664,27.832
1586550062.742,-74.219,32.227,31.738,-10.742,-0.977
1586550062.746,-87.891,33.691,29.785,-15.137,38.086
1586550062.750,68.848,33.691,30.273,40.527,30.762
1586550062.754,143.555,34.180,31.250,56.152,0.488
1586550062.758,-21.973,33.203,32.227,1.465,23.926
1586550062.761,-85.449,32.715,34.180,-25.391,-5.371
1586550062.765,42.480,33.691,32.227,20.020,-29.297
1586550062.769,155.762,34.668,28.809,71.289,12.695
1586550062.773,28.320,35.645,32.227,19.043,21.973
1586550062.777,-85.449,35.156,34.668,-28.320,16.602
1586550062.781,-2.441,33.691,33.691,13.672,54.688
1586550062.785,149.414,32.227,36.133,63.477,82.520
1586550062.789,90.332,34.668,34.180,40.527,62.988
1586550062.793,-75.195,37.109,31.738,-13.184,0.488
1586550062.797,-43.457,36.621,35.156,-2.930,-7.324
1586550062.801,128.418,37.109,33.691,54.199,38.086
1586550062.804,137.207,38.574,32.715,59.570,62.012
1586550062.808,-51.758,38.086,34.668,-4.883,47.852
1586550062.812,-69.336,33.203,31.738,-19.531,-16.113
1586550062.816,81.543,31.250,33.691,40.039,0.000
1586550062.820,154.297,28.809,34.180,75.684,26.367
1586550062.824,-10.254,27.832,31.250,11.230,-2.930
1586550062.828,-89.844,32.715,30.762,-30.273,30.762
1586550062.832,25.391,34.180,29.297,14.648,15.625
1586550062.836,160.645,33.691,27.344,70.312,28.809
1586550062.840,45.898,35.156,30.762,34.180,13.184
1586550062.844,-78.613,34.180,35.645,-18.066,-35.645
1586550062.847,-12.207,31.250,34.180,1.953,-13.184
1586550062.851,141.113,30.273,32.715,61.523,6.836
1586550062.855,93.750,30.762,35.645,46.875,-3.418
1586550062.859,-78.125,30.762,36.133,-13.184,5.859
1586550062.863,-51.758,30.273,37.598,-5.859,0.977
1586550062.867,117.188,33.691,41.992,52.734,-0.488
1586550062.871,143.066,31.738,39.551,65.430,37.109
1586550062.875,-40.039,28.809,36.133,0.488,32.715
1586550062.879,-75.684,31.250,36.621,-19.043,51.758
1586550062.883,64.941,27.344,38.086,27.344,28.320
1586550062.886,164.551,25.879,38.086,75.195,-11.719
1586550062.890,10.254,29.297,35.645,33.691,10.742
1586550062.894,-89.355,28.320,34.668,-10.742,-3.906
1586550062.898,15.625,29.785,33.203,21.484,25.391
1586550062.902,163.086,29.785,31.250,66.895,43.945
1586550062.906,60.547,27.344,28.809,34.180,59.570
1586550062.910,-82.520,27.344,27.832,-25.391,60.547
1586550062.914,-20.020,28.809,32.715,-8.789,-8.301
1586550062.918,133.789,27.832,34.180,65.430,3.906
1586550062.922,105.957,27.832,36.133,62.500,78.125
1586550062.926,-62.500,31.738,36.133,-6.348,37.109
1586550062.929,-54.688,31.738,33.203,1.465,20.508
1586550062.933,106.934,31.738,30.273,52.246,49.805
1586550062.937,163.086,33.203,32.227,71.289,38.574
1586550062.941,-18.066,34.668,30.762,6.348,37.109
1586550062.945,-80.566,33.203,31.250,-26.367,-5.371
1586550062.949,60.059,33.203,31.250,23.926,35.156
1586550062.953,175.293,32.715,31.738,64.453,39.062
1586550062.957,26.367,33.203,32.715,22.949,0.977
1586550062.961,-83.008,34.180,29.785,-10.254,13.672
1586550062.965,3.418,32.715,29.297,12.695,29.785
1586550062.969,151.855,33.203,30.273,63.477,29.297
1586550062.972,76.172,34.668,32.227,42.969,43.457
1586550062.976,-77.637,37.109,31.738,-14.160,-7.324
1586550062.980,-27.344,37.109,31.250,-0.488,-23.926
1586550062.984,132.324,34.668,32.227,64.941,58.594
1586550062.988,124.023,33.203,33.691,73.242,11.230
1586550062.992,-55.176,32.227,34.668,0.977,-11.719
1586550062.996,-65.430,33.691,32.715,-16.113,57.617
1586550063.000,95.703,34.668,27.832,32.227,33.203
1586550063.004,163.574,34.668,30.273,59.570,26.855
1586550063.008,-10.254,36.621,32.715,7.812,43.945
1586550063.011,-83.984,34.180,32.227,-24.414,-5.859
1586550063.015,34.668,32.227,32.227,12.695,-10.254
1586550063.019,168.945,33.691,30.762,67.383,-11.719
1586550063.023,51.758,34.668,31.738,28.809,-7.812
1586550063.027,-80.078,34.180,32.227,-21.973,34.180
1586550063.031,-21.973,30.762,30.762,-0.977,44.922
1586550063.035,135.742,27.344,30.273,49.805,55.176
1586550063.039,75.684,29.297,28.809,35.156,26.367
1586550063.043,-92.285,30.762,29.297,-20.996,-5.371
1586550063.047,-47.852,32.227,29.785,-10.254,47.852
1586550063.051,114.258,30.273,28.809,40.527,37.598
1586550063.054,136.230,30.273,28.320,53.223,-14.160
1586550063.058,-47.852,33.691,29.297,-0.977,41.992
1586550063.062,-85.449,31.250,28.320,-20.996,45.898
1586550063.066,66.406,30.762,27.344,36.133,-5.371
1586550063.070,153.809,33.203,29.785,75.684,16.602
1586550063.074,-8.789,33.691,32.715,21.484,22.949
1586550063.078,-91.797,35.156,34.180,-27.344,11.719
1586550063.082,23.438,35.645,33.203,4.883,41.992
1586550063.086,161.133,34.180,29.297,66.406,62.012
1586550063.090,48.828,33.691,30.762,33.691,33.691
1586550063.094,-95.703,29.785,34.180,-21.973,3.418
1586550063.097,-30.762,29.297,35.645,1.953,-4.395
1586550063.101,137.207,31.738,33.203,64.453,4.395
1586550063.105,96.680,30.273,35.156,58.105,7.812
1586550063.109,-68.848,30.762,35.645,-4.883,4.395
1586550063.113,-44.922,30.762,32.227,-10.254,-7.324
1586550063.117,105.957,28.809,29.785,45.898,12.207
1586550063.121,133.301,32.227,28.320,70.801,42.480
1586550063.125,-43.457,36.133,33.691,16.113,41.504
1586550063.129,-78.125,35.156,35.156,-10.742,56.152
1586550063.133,62.500,30.762,32.715,26.855,21.484
1586550063.136,159.180,30.762,33.691,67.383,31.250
1586550063.140,4.395,33.691,36.621,29.785,53.711
1586550063.144,-96.191,32.227,36.621,-12.695,33.203
1586550063.148,8.789,31.250,36.621,12.695,64.453
1586550063.152,152.832,32.715,35.645,78.613,41.504
1586550063.156,60.547,31.250,34.668,57.617,24.902
1586550063.160,-94.238,30.762,35.156,-3.906,24.902
1586550063.164,-45.410,32.715,35.645,3.906,43.457
1586550063.168,127.441,32.227,35.645,59.082,80.078
1586550063.172,105.957,35.156,36.133,44.922,69.336
1586550063.176,-70.312,35.645,34.180,-24.902,31.250
1586550063.179,-62.988,33.203,34.668,-23.438,-49.805
1586550063.183,85.449,32.227,36.621,37.109,-54.199
1586550063.187,141.602,34.180,35.645,64.941,46.875
1586550063.191,-30.273,35.156,36.133,7.324,1.465
1586550063.195,-88.867,34.668,35.156,-20.020,-30.273
1586550063.199,42.969,33.691,34.180,21.484,72.266
1586550063.203,166.992,31.738,36.133,74.707,35.645
1586550063.207,36.133,33.203,38.086,36.133,-42.969
1586550063.211,-76.172,35.645,35.645,-16.113,1.465
1586550063.215,7.324,34.668,34.668,16.113,20.020
1586550063.219,163.086,33.691,35.645,71.289,0.977
1586550063.222,86.914,33.691,35.645,42.480,37.109
1586550063.226,-86.426,31.738,34.180,-18.066,30.762
1586550063.230,-48.340,30.762,33.203,-13.184,2.441
1586550063.234,121.582,32.227,32.715,45.898,21.973
1586550063.238,126.953,31.738,32.715,58.594,5.859
1586550063.242,-55.176,30.273,33.203,7.812,-23.438
1586550063.246,-69.336,28.320,30.762,8.789,-5.371
1586550063.250,75.195,26.367,30.273,51.270,33.203
1586550063.254,142.090,29.785,31.250,62.500,42.480
1586550063.258,-17.090,34.668,32.227,13.184,28.320
1586550063.261,-96.191,33.203,32.227,-25.391,-44.434
1586550063.265,26.855,33.203,29.785,-1.953,-32.715
1586550063.269,164.062,35.156,26.367,45.898,69.336
1586550063.273,41.504,37.598,29.297,17.090,64.453
1586550063.277,-86.426,36.621,29.297,-28.809,-3.906
1586550063.281,-8.789,35.156,28.320,-0.488,4.395
1586550063.285,151.855,35.156,28.809,61.035,11.230
1586550063.289,96.680,35.156,28.809,47.363,-35.645
1586550063.293,-68.848,38.574,27.832,-10.742,-44.922
1586550063.297,-32.715,40.527,31.738,-6.836,19.043
1586550063.301,125.977,41.992,30.762,48.340,62.500
1586550063.304,153.809,41.992,25.391,59.082,40.527
1586550063.308,-21.973,40.039,28.809,5.859,14.160
1586550063.312,-63.477,38.574,29.297,-14.648,11.719
1586550063.316,79.102,38.574,25.879,30.273,34.668
1586550063.320,166.992,35.156,28.809,68.848,10.742
1586550063.324,1.465,34.668,32.715,12.207,-7.812
1586550063.328,-84.961,37.598,32.227,-26.367,11.719
1586550063.332,18.555,38.574,30.273,4.883,29.297
1586550063.336,161.133,36.621,28.320,59.570,1.465
1586550063.340,59.082,36.621,28.320,33.691,25.879
1586550063.344,-84.473,39.062,30.273,-19.043,39.551
1586550063.347,-22.461,39.062,31.250,3.418,24.902
1586550063.351,140.625,36.621,30.273,59.570,47.363
1586550063.355,115.723,35.645,32.227,52.246,93.262
1586550063.359,-64.453,34.668,34.668,-0.488,86.914
1586550063.363,-58.594,35.645,32.715,-0.488,-2.930
1586550063.367,98.145,35.645,32.715,50.293,14.648
1586550063.371,144.531,34.180,32.715,66.895,80.078
1586550063.375,-24.902,35.156,34.668,10.742,32.227
1586550063.379,-76.172,36.133,37.598,-7.324,23.926
1586550063.383,59.082,35.645,37.598,30.762,9.277
1586550063.386,169.434,37.109,36.133,64.453,-61.523
1586550063.390,17.578,38.574,34.180,14.648,-30.273
1586550063.394,-90.820,39.062,32.227,-22.949,16.602
1586550063.398,5.371,35.156,31.250,9.766,10.742
1586550063.402,161.621,34.180,32.227,65.430,18.555
1586550063.406,81.543,37.109,35.156,42.480,49.316
1586550063.410,-76.660,37.598,31.250,-19.043,12.207
1586550063.414,-35.645,35.645,25.879,-4.395,5.371
1586550063.418,122.070,34.180,28.320,56.641,42.969
1586550063.422,113.281,33.203,31.738,55.176,10.742
1586550063.426,-67.383,31.738,33.203,-3.418,-6.836
1586550063.429,-68.848,33.691,31.738,-2.930,-5.371
1586550063.433,88.867,33.691,30.762,52.246,38.086
1586550063.437,150.391,34.668,32.715,73.242,32.227
1586550063.441,-25.879,37.598,34.180,18.555,0.488
1586550063.445,-95.703,34.180,34.180,-7.812,2.441
1586550063.449,31.250,30.273,29.785,27.344,56.152
1586550063.453,159.180,32.227,29.297,63.477,80.078
1586550063.457,28.809,34.180,32.715,21.973,77.148
1586550063.461,-93.262,30.273,34.668,-15.625,56.641
1586550063.465,-4.883,30.762,34.668,8.301,-9.277
1586550063.469,151.855,36.133,34.180,66.895,72.754
1586550063.472,76.660,38.086,34.180,50.293,71.289
1586550063.476,-91.797,35.645,34.180,-11.719,-6.348
1586550063.480,-54.199,35.156,33.691,-4.395,10.742
1586550063.484,108.887,37.109,29.785,51.758,71.289
1586550063.488,119.629,35.645,31.738,62.500,64.453
1586550063.492,-56.641,35.645,34.668,1.953,6.348
1586550063.496,-77.148,34.668,33.203,-8.301,6.836
1586550063.500,64.941,31.250,34.180,54.688,3.906
1586550063.504,148.926,29.785,33.691,84.961,-9.277
1586550063.508,-7.324,32.715,33.203,18.066,-16.113
1586550063.511,-85.938,36.133,32.227,-17.578,-7.324
1586550063.515,19.531,36.621,33.691,25.391,54.688
1586550063.519,160.156,35.645,36.133,73.242,71.777
1586550063.523,54.199,38.086,34.668,33.691,27.832
1586550063.527,-87.891,37.109,36.133,-21.484,25.391
1586550063.531,-19.531,34.668,38.574,-5.859,31.738
1586550063.535,151.367,35.156,38.574,64.453,20.508
1586550063.539,97.168,37.109,39.062,49.316,-14.160
1586550063.543,-88.379,33.691,41.016,-18.066,14.160
1586550063.547,-62.988,34.668,38.086,-13.184,34.180
1586550063.551,91.797,36.133,34.668,44.922,16.602
1586550063.554,120.605,38.086,39.062,67.383,53.223
1586550063.558,-51.270,41.992,42.969,-4.395,40.527
1586550063.562,-85.938,34.668,36.133,-28.320,-5.371
1586550063.566,57.617,29.785,31.738,29.297,0.977
1586550063.570,152.344,31.738,29.785,69.336,66.895
1586550063.574,6.348,33.203,32.715,27.344,59.082
1586550063.578,-74.219,34.668,34.668,-9.277,19.043
1586550063.582,22.949,31.738,34.668,18.555,16.602
1586550063.586,158.203,32.227,36.621,75.195,24.414
1586550063.590,63.965,37.109,37.109,47.852,44.434
1586550063.594,-88.867,36.621,38.086,-7.812,43.945
1586550063.597,-24.902,32.227,34.180,6.348,37.109
1586550063.601,145.996,31.250,31.738,61.035,13.184
1586550063.605,111.816,34.668,37.109,61.523,2.930
1586550063.609,-65.918,35.156,40.527,0.488,18.555
1586550063.613,-57.129,34.180,38.574,-8.789,-4.883
1586550063.617,103.516,32.715,37.109,49.316,-20.996
1586550063.621,161.133,34.668,38.086,75.684,12.207
1586550063.625,-17.090,36.621,37.598,12.207,34.668
1586550063.629,-70.801,34.668,36.621,-18.555,25.879
1586550063.633,60.059,31.738,36.133,35.645,9.277
1586550063.636,167.969,30.762,35.645,87.402,64.941
1586550063.640,18.066,33.203,35.645,26.367,14.648
1586550063.644,-93.750,33.691,36.133,-21.973,-9.766
1586550063.648,4.395,31.738,32.715,13.184,23.438
1586550063.652,153.809,33.691,28.809,65.430,52.246
1586550063.656,72.266,34.668,31.738,39.062,40.527
1586550063.660,-91.797,36.133,33.203,-14.648,15.625
1586550063.664,-47.852,36.621,34.668,0.000,58.594
1586550063.668,127.930,34.668,33.203,58.594,77.637
1586550063.672,129.883,35.156,33.203,61.523,65.918
1586550063.676,-50.781,35.645,34.668,1.953,37.598
1586550063.679,-64.453,36.621,34.668,0.977,54.199
1586550063.683,84.473,35.645,31.738,55.664,13.184
1586550063.687,157.715,35.156,31.738,63.965,-29.297
1586550063.691,-8.789,39.551,32.715,-6.348,1.953
1586550063.695,-78.125,35.645,30.762,-27.832,-18.066
1586550063.699,42.969,33.691,30.273,25.879,-32.227
1586550063.703,163.574,33.691,32.227,77.148,2.930
1586550063.707,34.668,31.250,35.156,33.203,29.785
1586550063.711,-87.891,33.691,34.180,-16.113,34.180
1586550063.715,-6.836,33.203,33.691,5.859,62.500
1586550063.719,152.832,31.250,32.715,64.453,43.945
1586550063.722,92.773,32.227,34.180,55.176,35.156
1586550063.726,-79.102,34.668,37.598,-3.418,29.297
1586550063.730,-53.711,30.273,38.086,0.977,4.883
1586550063.734,97.656,27.832,36.621,59.570,5.371
1586550063.738,119.141,34.180,38.086,68.359,28.809
1586550063.742,-43.945,35.156,41.992,0.488,38.086
1586550063.746,-73.242,32.227,42.480,-18.066,2.930
1586550063.750,66.406,35.645,40.527,33.203,-43.945
1586550063.754,157.227,38.574,41.016,74.707,-10.254
1586550063.758,-10.254,35.156,40.039,27.832,-8.789
1586550063.761,-97.656,31.250,37.598,-15.625,0.977
1586550063.765,15.625,30.762,38.086,13.672,31.738
1586550063.769,159.180,30.762,38.574,71.777,62.988
1586550063.773,55.176,32.715,40.039,41.992,26.367
1586550063.777,-91.309,32.715,40.527,-5.371,-18.555
1586550063.781,-27.344,30.273,38.574,0.000,-28.809
1586550063.785,134.277,27.832,37.109,53.223,13.672
1586550063.789,93.750,27.344,37.598,51.758,9.766
1586550063.793,-83.496,26.367,42.969,-16.113,-42.969
1586550063.797,-66.895,25.879,42.480,-11.719,-32.227
1586550063.801,94.238,26.367,38.086,41.016,-22.461
1586550063.804,131.836,28.320,37.598,52.734,22.461
1586550063.808,-43.945,30.273,39.062,-0.488,-7.812
1586550063.812,-85.449,31.250,37.109,-20.508,-38.086
1586550063.816,48.340,30.273,34.180,33.203,25.879
1586550063.820,151.855,28.320,33.691,74.707,35.156
1586550063.824,7.812,28.809,36.133,22.461,20.020
1586550063.828,-91.309,27.832,37.598,-19.043,-9.277
1586550063.832,10.254,25.879,37.598,7.324,27.344
1586550063.836,160.645,26.367,36.621,62.500,112.305
1586550063.840,68.359,27.832,40.039,38.086,56.641
1586550063.844,-89.355,24.414,39.551,-17.090,6.836
1586550063.847,-38.574,23.438,35.156,-10.254,16.602
1586550063.851,130.859,26.855,35.156,44.434,40.527
1586550063.855,118.652,27.832,39.062,48.828,37.109
1586550063.859,-64.453,30.273,40.039,-7.812,-5.371
1586550063.863,-63.477,29.785,38.086,-10.254,-40.527
1586550063.867,86.426,28.320,34.668,44.922,12.695
1586550063.871,133.301,30.762,36.621,69.336,74.707
1586550063.875,-32.715,33.691,39.062,5.371,74.707
1586550063.879,-86.426,33.203,39.062,-19.043,7.324
1586550063.883,40.527,34.180,37.109,26.367,-65.918
1586550063.886,168.945,37.109,38.086,75.684,15.625
1586550063.890,35.156,35.156,41.992,35.156,44.434
1586550063.894,-86.426,37.598,42.480,-11.719,0.000
1586550063.898,2.441,41.016,40.039,18.066,12.207
1586550063.902,155.273,36.133,35.156,69.336,30.762
1586550063.906,79.590,31.250,35.156,48.340,-9.277
1586550063.910,-88.379,30.273,36.621,-8.301,-0.488
1586550063.914,-56.152,32.715,36.621,-3.418,15.137
1586550063.918,107.422,34.180,35.645,48.340,-23.438
1586550063.922,121.582,35.156,35.645,52.246,3.418
1586550063.926,-51.270,34.180,36.133,-7.324,-15.137
1586550063.929,-64.941,33.203,37.109,-15.137,-7.812
1586550063.933,82.520,34.668,36.621,33.203,26.855
1586550063.937,160.645,38.574,35.156,65.918,27.344
1586550063.941,0.000,39.551,32.227,20.508,24.902
1586550063.945,-68.848,36.621,33.691,-8.301,12.207
1586550063.949,46.875,39.062,36.621,24.902,35.645
1586550063.953,176.270,41.504,33.203,71.777,61.523
1586550063.957,58.594,39.551,36.133,42.480,31.250
1586550063.961,-76.660,37.598,41.504,-5.371,-14.648
1586550063.965,-11.230,35.645,38.086,10.742,20.020
1586550063.969,143.066,36.133,32.715,61.035,61.035
1586550063.972,89.844,37.109,32.227,49.316,41.504
1586550063.976,-76.660,37.109,30.273,-10.254,64.941
1586550063.980,-45.410,34.668,28.320,-11.230,56.641
1586550063.984,108.887,33.203,27.832,47.852,37.598
1586550063.988,126.953,34.668,31.250,62.988,106.445
1586550063.992,-43.457,35.645,36.621,0.488,42.480
1586550063.996,-68.848,36.133,37.109,-17.578,0.977
1586550064.000,74.219,33.691,37.109,26.367,15.137
1586550064.004,164.551,33.203,36.133,59.570,-2.441
1586550064.008,9.766,33.691,34.180,12.695,26.855
1586550064.011,-75.195,33.691,32.227,-19.043,52.246
1586550064.015,25.879,32.227,33.203,20.020,10.254
1586550064.019,161.621,31.250,31.738,71.777,4.883
1586550064.023,50.781,31.250,31.738,37.109,6.348
1586550064.027,-94.727,31.738,37.109,-22.461,3.906
1586550064.031,-31.738,31.250,34.180,-5.371,5.371
1586550064.035,133.789,30.273,29.297,52.246,30.762
1586550064.039,113.281,32.715,33.691,39.062,77.637
1586550064.043,-65.918,35.645,38.574,-18.555,7.324
1586550064.047,-63.965,32.715,39.062,-16.113,-1.953
1586550064.051,94.727,30.762,37.109,41.504,40.039
1586550064.054,145.020,33.203,35.156,59.570,53.711
1586550064.058,-23.438,34.180,37.109,-2.930,36.133
1586550064.062,-78.613,30.273,38.574,-18.066,9.277
1586550064.066,39.062,31.250,36.621,31.250,29.785
1586550064.070,152.344,32.715,36.133,67.383,20.508
1586550064.074,18.066,31.250,38.574,20.508,4.883
1586550064.078,-86.914,32.715,39.551,-16.602,-4.883
1586550064.082,5.859,31.738,38.086,7.812,37.598
1586550064.086,149.414,30.762,35.156,54.688,59.570
1586550064.090,60.059,32.715,39.062,37.109,39.551
1586550064.094,-93.750,34.180,41.016,-13.184,3.906
1586550064.097,-39.551,34.180,37.598,-11.230,7.812
1586550064.101,123.047,36.133,37.109,45.410,61.035
1586550064.105,118.652,38.574,39.551,53.223,66.895
1586550064.109,-55.176,36.621,41.504,-5.859,56.152
1586550064.113,-63.965,32.715,39.551,-9.277,-25.879
1586550064.117,85.449,31.250,37.598,47.852,0.488
1586550064.121,149.902,32.227,37.598,66.406,58.594
1586550064.125,-18.066,36.621,39.062,9.277,23.438
1586550064.129,-82.520,35.156,37.598,-17.578,64.941
1586550064.133,41.016,35.645,34.180,21.484,68.848
1586550064.136,157.227,39.551,38.086,71.777,33.203
1586550064.140,21.484,39.062,41.016,32.227,24.414
1586550064.144,-94.727,38.574,38.574,-21.484,6.836
1586550064.148,-12.207,36.621,37.109,-8.301,-36.621
1586550064.152,144.531,33.691,35.645,52.734,-33.691
1586550064.156,84.961,36.621,35.645,38.086,53.711
1586550064.160,-78.125,39.062,38.086,-22.949,54.199
1586550064.164,-44.434,35.645,37.109,-20.508,-5.371
1586550064.168,110.840,35.645,35.156,37.598,2.441
1586550064.172,129.395,38.574,35.645,59.570,41.016
1586550064.176,-40.527,36.133,37.598,-4.395,27.832
1586550064.179,-66.895,35.645,36.133,-26.367,17.090
1586550064.183,73.242,36.621,34.668,25.391,55.176
1586550064.187,148.438,34.180,38.086,59.570,14.160
1586550064.191,-19.531,34.668,39.551,8.789,-35.156
1586550064.195,-104.980,34.180,37.109,-24.902,-22.461
1586550064.199,11.230,35.156,37.598,7.812,27.832
1586550064.203,153.809,34.180,37.109,60.547,53.223
1586550064.207,43.945,33.691,35.156,18.555,53.223
1586550064.211,-83.008,37.109,35.645,-32.227,59.570
1586550064.215,-12.207,33.691,35.645,-5.371,51.758
1586550064.219,148.926,32.227,35.156,54.688,48.828
1586550064.222,101.074,35.645,38.086,45.410,34.180
1586550064.226,-75.195,33.203,39.062,-15.137,6.836
1586550064.230,-59.570,30.762,41.504,-0.488,-8.301
1586550064.234,95.215,30.762,39.551,51.270,35.645
1586550064.238,131.836,31.738,32.715,52.734,58.594
1586550064.242,-44.922,33.203,34.668,0.977,14.160
1586550064.246,-84.961,33.203,37.109,-10.254,10.254
1586550064.250,46.875,31.250,34.668,26.855,11.230
1586550064.254,142.578,28.809,36.621,62.988,2.441
1586550064.258,-4.395,28.320,39.551,19.043,27.344
1586550064.261,-100.098,31.250,38.574,-24.902,74.219
1586550064.265,8.301,33.203,36.621,-5.859,41.504
1586550064.269,160.645,31.738,37.598,50.293,12.207
1586550064.273,71.777,35.645,37.598,34.668,36.133
1586550064.277,-82.031,35.645,38.574,-21.484,63.477
1586550064.281,-31.738,31.250,39.551,-2.441,59.570
1586550064.285,136.719,33.203,37.109,55.664,42.969
1586550064.289,125.488,34.180,38.086,46.875,27.832
1586550064.293,-48.828,32.227,40.527,-1.953,16.113
1586550064.297,-52.734,28.809,40.039,-5.371,60.547
1586550064.301,96.680,30.762,35.156,39.062,16.113
1586550064.304,151.367,33.203,36.621,59.570,4.395
1586550064.308,-24.414,34.180,39.551,2.441,8.301
1586550064.312,-88.379,35.645,39.551,-17.090,-9.766
1586550064.316,43.457,34.668,39.062,20.996,55.176
1586550064.320,165.527,34.180,36.621,62.988,55.664
1586550064.324,20.996,33.691,38.574,26.367,18.555
1586550064.328,-92.285,31.738,37.598,-17.578,-16.113
1586550064.332,10.742,32.715,34.668,13.672,33.203
1586550064.336,163.086,32.227,36.133,64.453,70.312
1586550064.340,75.684,30.762,39.062,38.574,0.977
1586550064.344,-83.496,30.762,41.016,-18.555,2.441
1586550064.347,-34.180,36.133,38.086,-8.301,25.879
1586550064.351,127.441,35.645,33.691,43.945,11.230
1586550064.355,122.559,31.250,33.691,54.199,37.598
1586550064.359,-57.617,31.738,35.156,-6.836,54.199
1586550064.363,-73.242,28.809,32.227,-32.227,-4.395
1586550064.367,81.055,29.297,31.738,20.996,-25.879
1586550064.371,154.785,32.227,33.691,57.129,18.555
1586550064.375,-23.926,30.762,35.156,4.395,29.297
1586550064.379,-90.820,29.297,34.180,-20.508,-32.715
1586550064.383,33.691,29.297,35.156,19.043,-23.926
1586550064.386,157.227,32.227,38.574,65.430,22.949
1586550064.390,38.086,34.180,35.156,33.203,-12.695
1586550064.394,-84.961,35.156,34.668,-15.625,2.441
1586550064.398,-13.672,34.668,37.109,-1.953,74.707
1586550064.402,144.531,34.180,37.109,61.523,58.105
1586550064.406,95.703,35.156,32.227,36.621,-2.441
1586550064.410,-72.266,33.691,28.320,-40.527,-21.973
1586550064.414,-40.039,35.645,27.832,-26.855,14.648
1586550064.418,115.234,35.645,29.297,41.504,-8.301
1586550064.422,133.789,34.180,33.203,58.594,22.949
1586550064.426,-45.410,34.180,33.691,0.488,52.246
1586550064.429,-76.172,34.180,32.715,-15.137,25.391
1586550064.433,66.895,34.668,31.738,30.762,39.062
1586550064.437,150.391,34.668,31.738,60.059,59.570
1586550064.441,-6.348,35.645,32.715,10.254,59.570
1586550064.445,-88.379,38.086,32.227,-17.090,64.941
1586550064.449,19.531,40.527,30.273,14.648,37.109
1586550064.453,168.945,41.016,27.832,61.035,49.316
1586550064.457,63.477,42.480,27.832,31.738,0.000
1586550064.461,-85.938,41.992,30.273,-23.438,7.324
1586550064.465,-24.902,36.621,30.762,-3.906,74.707
1586550064.469,139.648,34.668,27.832,63.965,40.527
1586550064.472,110.840,33.691,30.762,60.547,40.527
1586550064.476,-66.895,33.691,33.203,-4.395,66.895
1586550064.480,-55.664,34.180,33.203,-10.254,57.129
1586550064.484,107.422,34.668,31.250,41.016,40.527
1586550064.488,156.738,39.062,31.738,64.941,48.340
1586550064.492,-20.508,38.086,39.551,16.602,10.742
1586550064.496,-75.684,35.156,42.969,-8.789,22.949
1586550064.500,57.129,32.715,35.156,26.855,27.832
1586550064.504,167.480,30.273,33.203,69.824,28.809
1586550064.508,30.273,33.203,36.133,22.949,77.637
1586550064.511,-76.660,33.691,34.180,-21.973,71.289
1586550064.515,6.348,33.691,31.738,7.324,50.293
1586550064.519,151.855,32.227,30.273,61.035,39.551
1586550064.523,53.711,30.273,34.180,31.738,29.785
1586550064.527,-98.145,33.203,38.574,-20.996,-11.230
1586550064.531,-33.203,35.156,40.527,-8.301,-41.016
1586550064.535,138.184,35.156,38.574,51.758,-20.508
1586550064.539,123.535,33.691,36.133,49.805,48.340
1586550064.543,-55.176,33.691,34.668,-11.230,27.832
1586550064.547,-65.430,32.227,34.180,-8.301,-22.461
1586550064.551,76.660,28.809,36.133,47.852,9.277
1586550064.554,143.066,29.785,35.645,74.707,47.363
1586550064.558,-23.926,31.738,34.668,11.230,26.855
1586550064.562,-80.078,32.227,34.180,-29.785,59.082
1586550064.566,46.875,32.227,32.715,8.301,77.148
1586550064.570,159.180,28.320,33.203,58.105,3.906
1586550064.574,28.809,28.320,35.156,14.648,-5.371
1586550064.578,-84.473,32.227,32.227,-31.250,44.434
1586550064.582,-5.859,31.738,31.738,-3.418,6.348
1586550064.586,141.602,30.762,34.668,54.199,-12.207
1586550064.590,68.848,31.250,35.156,40.527,34.180
1586550064.594,-85.938,33.203,39.062,-19.043,59.570
1586550064.597,-35.156,33.691,39.062,-11.719,47.852
1586550064.601,130.859,32.227,34.668,43.945,2.930
1586550064.605,132.324,33.691,37.109,46.387,4.395
1586550064.609,-50.293,32.227,41.504,-0.488,25.391
1586550064.613,-70.312,30.762,39.551,-13.672,-13.672
1586550064.617,69.824,31.250,37.109,29.297,-32.715
1586550064.621,146.484,29.785,37.109,65.430,7.324
1586550064.625,-16.602,32.227,37.598,8.301,9.277
1586550064.629,-88.379,33.203,37.598,-26.367,-30.762
1586550064.633,36.621,33.691,34.180,12.695,-8.789
1586550064.636,171.875,35.156,30.273,62.012,21.973
1586550064.640,50.781,35.156,33.203,25.391,32.227
1586550064.644,-85.938,36.133,38.086,-21.973,9.766
1586550064.648,-6.348,42.969,37.109,0.977,-8.789
1586550064.652,154.297,41.504,31.250,59.082,12.695
1586550064.656,102.051,35.156,29.297,47.852,35.645
1586550064.660,-66.895,35.645,28.320,-11.719,-30.273
1586550064.664,-45.898,36.133,27.832,-6.348,-69.824
1586550064.668,109.863,38.086,29.785,46.387,38.574
1586550064.672,134.766,38.086,32.227,65.918,66.406
1586550064.676,-37.598,38.086,31.738,9.766,-28.320
1586550064.679,-74.707,39.062,31.250,-16.602,33.203
1586550064.683,55.176,35.645,30.762,22.461,48.340
1586550064.687,148.926,37.109,30.273,61.035,-20.020
1586550064.691,0.977,38.574,34.180,23.926,19.531
1586550064.695,-78.125,35.645,37.109,-8.789,-8.789
1586550064.699,29.785,37.109,34.668,27.344,36.133
1586550064.703,169.922,34.668,36.133,81.055,79.590
1586550064.707,64.453,32.715,40.527,49.316,22.949
1586550064.711,-83.008,32.227,39.062,-5.371,-32.227
1586550064.715,-20.996,31.738,36.133,2.441,4.883
1586550064.719,138.184,30.762,36.133,60.059,102.539
1586550064.722,114.746,30.762,36.621,62.500,92.773
1586550064.726,-47.852,32.227,36.621,0.488,46.387
1586550064.730,-34.668,33.203,35.156,-6.836,21.973
1586550064.734,114.258,34.668,33.203,47.852,-5.371
1586550064.738,153.809,35.645,34.180,67.871,42.969
1586550064.742,-25.391,34.668,33.203,8.301,20.996
1586550064.746,-79.590,30.762,30.762,-11.230,6.836
1586550064.750,50.293,27.832,29.785,30.762,27.832
1586550064.754,160.645,29.785,29.297,66.895,-4.395
1586550064.758,19.531,29.297,32.715,19.531,-10.254
1586550064.761,-91.309,27.832,33.203,-25.391,21.484
1586550064.765,3.418,30.273,33.203,3.418,27.344
1586550064.769,157.715,32.227,33.691,57.129,8.789
1586550064.773,72.754,32.227,34.668,34.180,27.832
1586550064.777,-91.309,29.297,38.086,-17.090,51.758
1586550064.781,-44.434,28.809,38.086,-7.324,29.785
1586550064.785,116.211,30.273,35.156,54.688,27.832
1586550064.789,104.492,29.785,38.086,62.012,23.438
1586550064.793,-77.148,29.297,41.992,1.953,15.625
1586550064.797,-78.125,32.227,40.039,-8.789,27.832
1586550064.801,81.055,35.156,36.621,35.156,55.176
1586550064.804,151.367,35.645,35.156,62.988,75.195
1586550064.808,-15.137,35.156,33.691,6.836,22.949
1586550064.812,-87.402,33.203,35.156,-21.484,-9.766
1586550064.816,35.645,31.250,35.156,25.879,-7.324
1586550064.820,164.062,30.273,33.203,71.289,18.555
1586550064.824,39.062,30.273,35.645,29.297,-4.883
1586550064.828,-86.426,31.250,34.668,-18.066,-0.488
1586550064.832,-16.602,33.691,29.785,-4.883,43.457
1586550064.836,143.066,35.156,27.832,43.945,32.715
1586550064.840,88.867,35.156,31.738,26.855,-9.277
1586550064.844,-79.590,32.227,33.203,-31.738,20.508
1586550064.847,-50.781,31.738,34.668,-22.461,28.809
1586550064.851,109.375,32.227,34.180,38.574,25.879
1586550064.855,125.000,35.645,30.762,55.664,41.016
1586550064.859,-50.781,34.180,33.203,-5.859,48.340
1586550064.863,-78.125,31.250,34.668,-27.832,-24.414
1586550064.867,68.359,37.598,33.691,20.508,-13.672
1586550064.871,155.273,37.598,34.668,61.035,45.898
1586550064.875,-6.836,30.762,32.227,12.695,12.695
1586550064.879,-93.262,31.250,32.227,-33.691,34.668
1586550064.883,19.043,31.738,33.691,-0.977,52.734
1586550064.886,155.762,30.762,34.180,67.383,31.738
1586550064.890,37.109,30.762,34.180,39.551,11.230
1586550064.894,-98.633,32.715,34.180,-18.555,-24.902
1586550064.898,-28.320,33.203,35.156,-6.348,-0.488
1586550064.902,136.719,34.668,34.180,47.852,82.520
1586550064.906,100.098,34.180,34.180,43.457,71.289
1586550064.910,-69.336,32.227,31.738,-17.578,7.324
1586550064.914,-51.270,31.738,31.250,-18.066,-80.078
1586550064.918,99.609,28.809,35.156,36.133,12.207
1586550064.922,127.441,27.832,38.574,54.688,84.473
1586550064.926,-46.387,27.832,37.598,-11.230,16.113
1586550064.929,-87.402,29.785,37.598,-41.504,45.410
1586550064.933,45.410,31.250,39.062,13.184,-25.391
1586550064.937,146.973,30.273,37.109,61.035,-39.551
1586550064.941,0.977,27.344,36.133,13.184,-4.395
1586550064.945,-98.145,27.832,35.645,-29.297,18.555
1586550064.949,-0.488,31.738,31.738,-2.441,25.879
1586550064.953,145.508,32.227,32.715,52.246,36.621
1586550064.957,62.500,32.227,37.598,30.273,65.918
1586550064.961,-85.449,32.715,38.574,-24.902,-12.695
1586550064.965,-43.945,30.273,37.598,-11.719,-28.809
1586550064.969,124.512,32.715,37.109,44.434,20.508
1586550064.972,108.887,37.109,35.645,45.410,35.645
1586550064.976,-70.801,33.203,34.668,-9.277,-14.160
1586550064.980,-72.266,33.691,38.086,-8.301,-90.820
1586550064.984,76.660,36.621,35.645,45.410,-43.945
1586550064.988,135.742,34.180,31.738,62.988,44.922
1586550064.992,-30.762,33.691,37.598,8.789,68.359
1586550064.996,-82.520,33.203,38.574,-15.625,14.648
1586550065.000,50.293,32.715,37.109,21.484,-41.992
1586550065.004,171.387,35.156,35.645,69.824,25.391
1586550065.008,47.363,38.086,37.109,33.203,65.430
1586550065.011,-65.430,38.574,39.062,-15.625,26.855
1586550065.015,18.066,37.598,34.180,15.137,21.484
1586550065.019,172.363,34.180,35.645,76.660,40.039
1586550065.023,97.656,34.668,39.551,54.688,-13.672
1586550065.027,-65.430,35.645,38.086,-4.395,-22.461
1586550065.031,-29.297,35.645,33.691,6.348,29.785
1586550065.035,128.418,37.109,31.250,59.082,32.227
1586550065.039,132.324,35.645,35.645,67.383,31.250
1586550065.043,-54.199,31.250,41.016,12.207,39.062
1586550065.047,-69.824,32.715,34.180,-6.348,29.785
1586550065.051,94.238,35.645,29.297,31.738,25.879
1586550065.054,162.598,34.668,38.086,62.988,26.367
1586550065.058,-11.230,32.227,45.898,10.742,22.461
1586550065.062,-81.055,26.367,45.410,-24.902,-7.812
1586550065.066,32.227,24.414,43.945,20.508,-12.695
1586550065.070,155.762,27.344,43.945,71.289,52.246
1586550065.074,25.879,25.879,46.387,24.414,92.285
1586550065.078,-98.633,29.297,43.945,-26.855,92.285
1586550065.082,-12.207,33.203,37.598,1.465,56.641
1586550065.086,143.555,33.203,34.668,62.012,7.324
1586550065.090,88.379,33.203,37.109,51.270,18.555
1586550065.094,-79.102,29.297,42.480,-12.207,29.785
1586550065.097,-50.781,30.273,38.086,-8.301,26.855
1586550065.101,112.793,28.809,33.203,59.570,42.480
1586550065.105,138.672,28.809,32.227,72.266,44.434
1586550065.109,-25.391,35.645,34.180,7.812,42.480
1586550065.113,-58.594,32.715,36.621,-14.160,16.602
1586550065.117,71.289,32.715,37.109,28.320,-7.324
1586550065.121,158.203,34.668,37.598,66.406,12.695
1586550065.125,-8.301,32.227,33.203,12.695,36.133
1586550065.129,-102.051,30.273,33.203,-30.273,1.465
1586550065.133,7.812,26.367,38.086,8.301,-21.484
1586550065.136,158.203,30.762,34.668,69.336,11.719
1586550065.140,60.547,33.691,31.250,30.762,13.184
1586550065.144,-76.660,32.227,34.668,-17.578,-6.348
1586550065.148,-26.367,34.668,35.645,4.883,-8.301
1586550065.152,121.582,34.668,35.156,57.129,39.551
1586550065.156,95.703,33.203,37.109,51.758,51.758
1586550065.160,-73.242,30.762,38.574,-3.906,12.695
1586550065.164,-58.594,29.297,37.109,-4.883,40.527
1586550065.168,93.750,29.297,36.133,46.387,40.527
1586550065.172,140.137,33.203,34.668,69.336,16.602
1586550065.176,-26.855,32.715,36.133,3.906,21.973
1586550065.179,-68.848,30.273,32.227,-21.484,33.203
1586550065.183,66.895,30.273,31.738,26.367,28.320
1586550065.187,173.828,31.250,36.133,60.547,32.227
1586550065.191,20.996,31.738,37.109,9.277,29.297
1586550065.195,-88.379,29.297,34.668,-29.785,32.715
1586550065.199,8.789,27.832,31.250,6.348,20.020
1586550065.203,151.367,28.809,31.250,69.824,20.020
1586550065.207,78.613,29.785,33.691,51.758,13.672
1586550065.211,-61.035,31.738,33.203,-18.066,23.926
1586550065.215,-20.020,30.273,33.691,-15.625,27.832
1586550065.219,132.812,29.785,31.250,48.828,-24.902
1586550065.222,121.094,30.273,31.738,58.105,-11.230
1586550065.226,-50.293,27.344,34.180,-1.465,7.324
1586550065.230,-55.664,31.250,31.250,-10.742,33.691
1586550065.234,91.797,33.203,31.250,40.527,9.766
1586550065.238,161.133,29.785,33.203,62.988,-11.719
1586550065.242,-6.348,28.320,34.668,11.230,34.668
1586550065.246,-85.449,30.273,34.668,-11.719,43.945
1586550065.250,40.039,32.715,35.156,35.645,5.859
1586550065.254,159.668,30.762,36.133,82.031,50.781
1586550065.258,34.180,31.738,37.598,34.180,86.914
1586550065.261,-71.289,36.621,39.062,-11.719,62.988
1586550065.265,0.488,32.715,34.668,12.695,67.383
1586550065.269,135.742,30.273,31.250,64.453,56.641
1586550065.273,72.266,31.738,33.203,45.410,48.828
1586550065.277,-83.984,29.785,34.180,-11.719,34.180
1586550065.281,-42.480,33.691,32.715,-12.207,5.371
1586550065.285,121.094,35.645,30.762,47.852,27.832
1586550065.289,120.117,32.227,32.715,56.152,47.852
1586550065.293,-55.664,32.227,39.062,3.906,47.363
1586550065.297,-69.336,33.203,38.086,-3.418,62.988
1586550065.301,73.242,33.203,33.203,28.809,26.855
1586550065.304,157.715,34.668,32.715,59.082,30.762
1586550065.308,-0.488,34.668,32.227,18.066,65.918
1586550065.312,-84.473,34.180,32.715,-24.902,51.270
1586550065.316,36.621,33.691,32.227,8.301,-19.043
1586550065.320,176.758,32.715,33.203,64.941,-1.953
1586550065.324,54.199,31.738,38.574,37.109,10.254
1586550065.328,-76.660,30.762,40.039,-7.324,-49.805
1586550065.332,-9.766,28.320,36.621,6.836,-15.625
1586550065.336,141.602,30.273,34.668,70.801,39.551
1586550065.340,106.445,32.227,34.180,64.941,53.223
1586550065.344,-70.801,31.250,35.156,0.000,-4.395
1586550065.347,-55.664,34.180,35.156,-13.184,-39.062
1586550065.351,102.539,33.691,31.250,33.691,33.203
1586550065.355,125.977,32.227,31.250,53.223,44.922
1586550065.359,-47.363,31.250,33.691,-4.395,14.160
1586550065.363,-89.355,30.273,33.691,-25.391,44.922
1586550065.367,46.387,29.297,32.227,18.066,12.695
1586550065.371,141.113,30.273,33.691,61.523,-19.043
1586550065.375,-8.789,33.203,35.645,14.160,-21.484
1586550065.379,-89.355,33.691,34.668,-25.879,-38.086
1586550065.383,18.066,31.738,34.180,5.859,-18.066
1586550065.386,162.109,31.738,31.738,55.664,-5.371
1586550065.390,63.477,35.645,30.762,35.156,10.742
1586550065.394,-87.891,35.645,31.250,-20.020,-27.344
1586550065.398,-34.668,32.227,30.762,-13.672,-3.906
1586550065.402,133.301,32.227,27.344,41.016,27.832
1586550065.406,128.418,33.691,28.320,39.062,28.809
1586550065.410,-45.410,31.250,34.668,-17.090,-30.273
1586550065.414,-52.734,28.320,36.621,-21.484,-7.812
1586550065.418,98.633,28.809,35.156,42.480,12.207
1586550065.422,136.230,32.227,32.715,75.195,-35.156
1586550065.426,-35.645,32.227,33.203,3.906,11.230
1586550065.429,-88.379,29.297,36.621,-33.691,34.668
1586550065.433,33.691,31.250,33.203,6.836,31.738
1586550065.437,159.668,30.762,31.738,59.082,70.312
1586550065.441,26.855,28.320,35.645,31.250,37.109
1586550065.445,-87.891,27.344,33.691,-17.578,-34.180
1586550065.449,-2.930,25.391,32.227,4.883,-69.336
1586550065.453,140.137,24.902,33.691,60.547,4.883
1586550065.457,69.336,25.391,34.668,43.457,86.426
1586550065.461,-79.102,22.461,37.109,-10.742,50.293
1586550065.465,-38.086,24.414,34.180,-0.488,-28.320
1586550065.469,121.582,26.367,33.691,57.617,12.207
1586550065.472,119.629,22.949,37.109,63.965,58.594
1586550065.476,-54.688,27.344,38.086,3.906,33.691
1586550065.480,-67.383,31.250,37.109,-14.648,58.594
1586550065.484,91.309,30.762,35.156,33.203,44.922
1586550065.488,170.410,32.227,35.645,66.406,61.035
1586550065.492,-6.836,34.668,36.621,5.859,60.059
1586550065.496,-80.566,34.180,40.039,-10.254,-1.953
1586550065.500,45.410,35.156,38.086,36.621,24.902
1586550065.504,172.363,34.668,35.156,72.754,35.645
1586550065.508,52.246,36.133,34.180,29.785,30.762
1586550065.511,-71.777,39.062,32.227,-19.531,69.336
1586550065.515,-2.930,35.645,35.645,-1.953,24.414
1586550065.519,144.531,33.203,35.156,46.875,48.828
1586550065.523,86.914,34.180,33.691,29.785,66.406
1586550065.527,-83.984,33.691,37.598,-20.020,-20.996
1586550065.531,-59.570,34.668,36.621,-4.395,2.930
1586550065.535,108.887,32.715,37.109,51.270,50.293
1586550065.539,134.277,29.785,39.551,62.988,50.293
1586550065.543,-43.457,29.297,40.527,8.301,56.152
1586550065.547,-75.684,27.832,39.551,0.000,70.801
1586550065.551,66.406,30.273,36.621,29.785,65.918
1586550065.554,166.504,34.180,36.621,53.711,5.859
1586550065.558,13.672,31.738,37.598,30.273,-4.883
1586550065.562,-83.984,30.762,33.691,2.441,-11.230
1586550065.566,28.320,30.273,32.715,10.742,22.949
1586550065.570,171.875,29.297,32.715,61.035,25.879
1586550065.574,64.453,33.203,33.203,43.945,22.461
1586550065.578,-75.684,34.668,34.668,-7.324,35.156
1586550065.582,-18.555,33.203,34.668,-11.719,15.625
1586550065.586,132.324,30.762,34.668,39.062,18.066
1586550065.590,85.449,29.785,35.156,42.480,2.930
1586550065.594,-78.613,34.180,34.180,-12.695,31.250
1586550065.597,-48.340,34.180,31.250,-11.719,52.246
1586550065.601,103.516,32.715,31.250,37.109,18.555
1586550065.605,138.672,30.273,33.691,49.316,-20.996
1586550065.609,-38.086,28.809,35.645,-3.418,5.371
1586550065.613,-78.125,32.227,33.691,-22.461,-12.695
1586550065.617,50.781,29.297,32.715,24.902,-55.176
1586550065.621,153.320,30.273,35.156,66.895,14.160
1586550065.625,17.578,34.668,36.621,23.438,23.926
1586550065.629,-90.332,33.691,38.086,-9.766,-1.465
1586550065.633,2.441,37.109,35.645,15.137,-20.020
1586550065.636,139.648,39.062,34.180,56.152,-9.277
1586550065.640,59.082,36.621,36.621,21.484,78.613
1586550065.644,-71.777,35.156,35.645,-26.855,50.781
1586550065.648,-25.391,35.645,35.156,-1.953,-15.625
1586550065.652,129.395,33.691,37.598,56.641,13.672
1586550065.656,112.793,29.785,39.062,44.922,31.250
1586550065.660,-75.684,29.785,35.156,-12.207,-11.719
1586550065.664,-81.543,30.762,33.691,-1.465,-36.621
1586550065.668,78.125,28.320,35.645,36.621,8.789
1586550065.672,138.672,29.297,35.156,49.316,55.664
1586550065.676,-26.855,35.645,36.621,2.441,50.781
1586550065.679,-81.055,37.598,35.645,-24.902,7.812
1586550065.683,44.922,35.156,34.668,9.277,29.785
1586550065.687,160.645,35.645,33.691,63.477,64.453
1586550065.691,25.391,35.645,37.109,36.133,12.207
1586550065.695,-104.492,34.180,36.621,-8.789,20.508
1586550065.699,-13.672,33.203,32.715,10.254,50.293
1586550065.703,158.203,32.715,32.227,54.199,27.344
1586550065.707,80.078,35.156,34.668,47.363,-15.625
1586550065.711,-85.938,33.203,35.156,-12.695,-25.879
1586550065.715,-39.062,29.785,33.691,-20.996,12.207
1586550065.719,124.512,28.809,34.180,53.711,12.695
1586550065.722,132.812,27.832,35.645,70.801,50.781
1586550065.726,-47.363,30.273,35.645,5.371,12.207
1586550065.730,-66.895,32.227,36.133,-12.695,33.203
1586550065.734,80.566,32.227,35.156,33.203,62.500
1586550065.738,152.344,33.203,32.715,66.895,9.277
1586550065.742,-20.020,28.809,34.668,17.090,-24.902
1586550065.746,-91.797,30.273,36.133,-5.859,-12.695
1586550065.750,31.250,34.180,31.738,21.484,23.438
1586550065.754,160.645,34.668,28.809,64.941,50.781
1586550065.758,39.062,35.645,24.902,27.832,50.293
1586550065.761,-85.449,34.180,29.785,-19.531,8.789
1586550065.765,-1.953,34.180,38.574,19.531,-8.301
1586550065.769,160.645,26.855,37.598,64.941,26.855
1586550065.773,109.375,22.949,35.156,50.781,22.461
1586550065.777,-68.359,29.785,36.621,2.930,-21.973
1586550065.781,-47.363,34.668,34.668,-3.906,18.555
1586550065.785,110.352,35.156,33.203,52.246,37.598
1586550065.789,128.906,33.691,37.109,68.848,33.203
1586550065.793,-36.133,32.227,34.668,-0.488,30.273
1586550065.797,-57.129,33.203,33.691,-10.254,4.395
1586550065.801,58.105,26.855,40.039,35.645,22.949
1586550065.804,135.254,28.320,42.480,63.965,23.438
1586550065.808,-6.348,34.180,39.062,5.859,34.180
1586550065.812,-98.633,31.738,37.598,-48.828,-2.930
1586550065.816,0.000,30.762,34.668,-2.930,13.672
1586550065.820,140.137,26.367,29.785,62.500,32.715
1586550065.824,59.570,41.504,36.133,54.199,-1.953
1586550065.828,-66.895,42.480,34.180,16.113,45.898
1586550065.832,-21.484,-8.789,38.086,15.625,54.199
1586550065.836,144.043,-6.348,54.199,72.754,42.480
1586550065.840,118.164,51.270,42.480,73.730,54.688
1586550065.844,-92.773,51.270,19.043,-10.742,-7.324
1586550065.847,-102.539,25.879,30.273,-46.875,-26.367
1586550065.851,65.918,31.250,43.945,13.672,28.809
1586550065.855,112.305,34.180,41.992,49.805,8.789
1586550065.859,-47.852,26.367,47.852,-3.906,-30.762
1586550065.863,-85.449,28.320,49.316,-20.996,-20.508
1586550065.867,31.250,31.250,39.062,17.090,-32.715
1586550065.871,139.160,27.344,37.598,63.477,8.301
1586550065.875,9.766,23.926,44.434,29.297,36.621
1586550065.879,-88.867,30.273,38.574,-17.578,27.832
1586550065.883,10.254,37.109,35.156,13.672,-0.977
1586550065.886,153.320,38.574,36.133,82.031,-11.230
1586550065.890,64.941,36.621,37.598,57.617,8.789
1586550065.894,-81.543,34.668,38.574,-13.184,28.320
1586550065.898,-30.273,35.645,36.621,0.977,34.180
1586550065.902,131.836,37.109,37.598,65.918,20.020
1586550065.906,122.070,38.574,39.062,55.176,11.719
1586550065.910,-62.988,33.203,39.551,-11.230,2.441
1586550065.914,-68.359,22.461,40.527,-7.324,18.555
1586550065.918,82.520,22.461,37.109,54.199,91.309
1586550065.922,148.438,28.320,32.715,69.824,108.398
1586550065.926,-9.766,29.297,31.738,15.625,27.832
1586550065.929,-76.172,29.785,34.180,-8.789,19.531
1586550065.933,39.062,31.738,34.180,19.043,50.781
1586550065.937,163.086,27.832,30.762,72.754,62.988
1586550065.941,40.039,25.879,27.832,55.664,55.664
1586550065.945,-90.332,30.762,30.762,-1.465,29.785
1586550065.949,-16.602,29.297,34.180,0.000,12.207
1586550065.953,140.137,27.344,29.785,53.223,26.855
1586550065.957,73.242,26.367,34.668,36.621,38.086
1586550065.961,-77.637,25.879,40.527,-17.578,69.336
1586550065.965,-40.039,24.902,40.039,-8.789,40.039
1586550065.969,110.352,27.344,37.598,50.781,33.691
1586550065.972,129.395,28.809,37.598,63.965,85.938
1586550065.976,-44.922,30.762,37.598,8.789,-3.418
1586550065.980,-70.801,33.203,33.691,-5.371,-31.738
1586550065.984,77.148,32.715,32.715,35.156,52.734
1586550065.988,163.574,32.227,31.738,68.359,71.289
1586550065.992,-11.230,31.250,32.715,11.230,20.020
1586550065.996,-91.309,26.855,32.715,-24.902,-32.715
1586550066.000,15.625,29.785,28.809,14.648,-51.758
1586550066.004,140.625,31.250,22.949,53.711,-68.359
1586550066.008,53.223,30.762,21.484,21.484,-33.691
1586550066.011,-87.891,27.832,27.344,-15.625,31.250
1586550066.015,-25.391,22.461,35.156,14.160,6.836
1586550066.019,142.090,25.391,36.621,64.453,27.344
1586550066.023,102.051,29.785,36.133,48.828,62.012
1586550066.027,-65.430,31.250,33.203,-16.602,43.457
1586550066.031,-51.758,33.691,25.879,-16.113,14.160
1586550066.035,107.422,33.691,27.344,45.898,-30.273
1586550066.039,142.578,27.832,32.227,54.199,21.484
1586550066.043,-33.691,26.367,32.227,4.883,75.195
1586550066.047,-78.613,29.785,35.156,-9.277,47.363
1586550066.051,56.641,29.785,35.156,29.297,17.090
1586550066.054,162.109,29.785,33.203,65.918,27.832
1586550066.058,12.207,31.250,39.062,20.996,5.859
1586550066.062,-84.473,29.297,41.992,-11.230,-13.672
1586550066.066,18.066,29.785,37.109,26.367,33.691
1586550066.070,165.527,29.297,35.156,75.684,59.570
1586550066.074,73.730,27.832,35.645,37.109,-9.277
1586550066.078,-70.312,31.250,35.645,-20.996,-63.965
1586550066.082,-21.973,32.227,33.691,1.953,5.859
1586550066.086,130.859,33.691,28.320,57.129,-1.953
1586550066.090,114.258,30.273,31.250,60.547,40.527
1586550066.094,-52.246,26.855,35.156,11.230,71.289
1586550066.097,-44.922,31.250,35.645,0.488,17.090
1586550066.101,97.168,41.016,29.785,41.504,28.320
1586550066.105,149.902,41.992,26.367,49.805,25.391
1586550066.109,-11.719,39.551,29.785,-8.789,15.137
1586550066.113,-66.406,41.504,30.762,-33.203,31.250
1586550066.117,49.316,40.039,27.832,2.930,-7.812
1586550066.121,162.109,35.156,30.762,60.059,-43.457
1586550066.125,33.691,35.645,33.203,26.367,17.578
1586550066.129,-84.473,35.156,28.320,-20.508,39.551
1586550066.133,-2.441,32.227,28.320,10.742,28.809
1586550066.136,146.484,32.715,27.344,75.684,26.367
1586550066.140,75.684,35.645,25.391,68.359,8.789
1586550066.144,-64.941,33.691,26.855,3.906,23.438
1586550066.148,-23.926,32.227,26.855,-3.906,22.949
1586550066.152,121.094,30.273,25.391,49.316,-2.441
1586550066.156,119.629,28.809,23.438,45.898,17.090
1586550066.160,-48.340,28.320,26.367,-19.531,-36.133
1586550066.164,-59.570,25.391,28.320,-37.598,-15.137
1586550066.168,89.355,25.391,25.879,11.719,34.180
1586550066.172,164.551,28.320,27.344,49.805,44.922
1586550066.176,-9.766,32.227,25.879,5.859,46.387
1586550066.179,-85.449,31.250,24.902,-7.812,53.223
1586550066.183,23.438,26.367,29.785,32.227,89.844
1586550066.187,148.926,29.297,27.344,68.848,126.465
1586550066.191,43.945,33.691,28.809,30.762,51.270
1586550066.195,-87.891,29.297,32.715,-11.230,21.484
1586550066.199,-22.949,25.391,29.785,2.441,41.016
1586550066.203,137.695,26.855,31.250,53.223,-22.949
1586550066.207,97.168,33.691,30.762,39.551,-28.809
1586550066.211,-71.289,35.645,31.250,-18.066,13.184
1586550066.215,-50.293,32.227,30.273,-10.742,4.883
1586550066.219,118.164,31.738,28.809,35.156,-15.625
1586550066.222,130.371,32.715,28.320,45.410,29.297
1586550066.226,-47.852,29.785,26.855,0.488,13.672
1586550066.230,-77.637,25.391,26.855,-9.766,-10.254
1586550066.234,49.805,28.809,28.320,41.016,50.293
1586550066.238,149.902,36.133,25.879,69.824,18.555
1586550066.242,6.348,39.062,27.344,13.184,20.020
1586550066.246,-79.102,38.086,27.832,-19.531,44.922
1586550066.250,33.203,38.086,22.461,6.836,-21.973
1586550066.254,161.621,35.645,23.438,53.711,18.555
1586550066.258,43.457,31.738,29.297,22.949,53.223
1586550066.261,-98.633,30.273,30.273,-16.113,-19.531
1586550066.265,-45.898,30.762,28.809,4.395,-9.277
1586550066.269,109.375,30.273,30.273,51.270,14.160
1586550066.273,88.379,32.715,32.715,49.316,41.504
1586550066.277,-77.637,32.715,32.715,-6.836,38.574
1586550066.281,-66.406,31.250,28.320,-19.043,59.082
1586550066.285,96.680,31.738,26.367,28.320,79.590
1586550066.289,140.137,32.715,28.320,49.316,40.527
1586550066.293,-31.250,34.668,29.785,-9.766,-20.020
1586550066.297,-76.172,34.180,29.785,-30.762,-61.523
1586550066.301,47.852,32.715,28.320,16.113,18.066
1586550066.304,157.227,32.227,33.203,61.523,21.973
1586550066.308,11.719,32.227,34.668,20.508,20.020
1586550066.312,-98.145,28.320,33.203,-16.113,-32.715
1586550066.316,7.324,33.203,29.785,8.301,-60.547
1586550066.320,146.484,35.645,26.855,55.176,-6.348
1586550066.324,51.758,28.809,33.203,30.273,4.395
1586550066.328,-85.938,30.273,34.668,-18.066,-10.742
1586550066.332,-25.879,31.250,31.250,-8.301,9.277
1586550066.336,120.117,28.320,32.715,41.992,69.336
1586550066.340,102.051,28.809,34.668,46.387,47.852
1586550066.344,-51.758,28.809,36.133,-17.090,18.555
1586550066.347,-55.664,26.367,34.180,-27.832,29.297
1586550066.351,77.637,27.344,30.762,31.738,44.434
1586550066.355,131.348,31.738,30.762,59.570,59.570
1586550066.359,-33.203,31.738,31.738,0.488,67.383
1586550066.363,-85.938,29.297,30.762,-24.902,35.645
1586550066.367,42.480,30.273,30.273,19.043,0.977
1586550066.371,153.809,32.227,32.227,61.523,-9.766
1586550066.375,20.996,32.227,32.715,20.020,12.695
1586550066.379,-100.586,33.691,32.227,-14.160,40.039
1586550066.383,-22.461,33.203,31.738,13.184,76.172
1586550066.386,137.207,32.715,34.180,65.430,88.379
1586550066.390,81.543,36.133,35.156,43.457,61.035
1586550066.394,-77.148,34.668,34.668,-14.160,36.621
1586550066.398,-47.363,28.809,36.621,-2.441,22.461
1586550066.402,114.746,32.715,34.668,54.199,25.391
1586550066.406,126.465,37.109,31.250,61.035,10.254
1586550066.410,-62.988,30.762,30.762,-8.789,-18.066
1586550066.414,-83.008,29.297,27.344,-38.086,43.945
1586550066.418,77.148,36.133,25.879,20.996,55.664
1586550066.422,157.715,36.621,30.273,52.734,43.457
1586550066.426,-1.953,36.621,33.691,6.836,-5.859
1586550066.429,-77.637,38.086,33.203,-12.695,-2.930
1586550066.433,22.949,32.227,32.227,16.602,25.391
1586550066.437,149.414,32.715,30.273,65.430,6.836
1586550066.441,41.016,35.156,31.738,44.922,28.320
1586550066.445,-89.844,34.668,31.738,-4.395,46.387
1586550066.449,-15.625,33.691,33.203,13.184,2.441
1586550066.453,132.324,35.156,32.715,62.988,41.504
1586550066.457,89.355,40.527,30.762,44.922,47.852
1586550066.461,-74.219,39.551,30.273,-10.254,-10.254
1586550066.465,-62.500,36.133,30.273,-19.043,26.855
1586550066.469,104.980,38.574,30.762,40.527,65.430
1586550066.472,152.832,40.039,29.297,59.570,46.875
1586550066.476,-28.320,37.598,28.809,-6.836,0.977
1586550066.480,-78.125,33.691,32.227,-16.113,-36.621
1586550066.484,52.246,35.156,29.297,40.527,0.000
1586550066.488,159.180,38.574,26.367,90.332,40.527
1586550066.492,14.648,38.086,32.227,36.133,19.531
1586550066.496,-95.703,31.738,37.598,-34.180,6.836
1586550066.500,-5.859,25.879,36.621,-19.043,-13.672
1586550066.504,139.648,26.367,32.715,25.391,7.812
1586550066.508,45.898,27.832,35.156,6.836,16.113
1586550066.511,-94.727,28.809,38.086,-25.391,29.785
1586550066.515,-41.992,31.250,33.691,-1.465,31.250
1586550066.519,113.281,31.738,32.227,47.363,58.594
1586550066.523,89.844,29.297,35.156,44.434,9.766
1586550066.527,-79.102,32.227,35.645,-7.812,-62.012
1586550066.531,-61.523,33.203,34.180,-14.648,-17.090
1586550066.535,89.355,34.180,35.645,31.250,1.465
1586550066.539,136.230,33.691,38.574,54.688,39.551
1586550066.543,-33.203,33.691,39.062,8.301,53.223
1586550066.547,-83.984,33.691,39.062,-18.555,-10.254
1586550066.551,48.340,30.273,37.109,15.625,-8.301
1586550066.554,155.273,28.809,34.668,59.570,48.340
1586550066.558,8.301,32.227,33.691,19.043,41.016
1586550066.562,-98.633,29.297,31.738,-22.461,-27.832
1586550066.566,-3.418,24.414,29.785,14.648,25.879
1586550066.570,143.066,28.320,29.785,62.500,80.566
1586550066.574,59.570,30.273,33.203,39.062,-10.742
1586550066.578,-96.680,30.762,31.738,-12.207,-38.574
1586550066.582,-47.852,29.785,27.832,-12.207,-6.348
1586550066.586,109.863,30.273,22.461,37.598,7.812
1586550066.590,104.492,30.762,24.902,43.945,36.621
1586550066.594,-68.359,27.344,26.367,-8.789,31.250
1586550066.597,-72.754,27.344,26.367,-9.277,15.625
1586550066.601,73.242,30.273,29.785,31.250,41.016
1586550066.605,147.949,27.832,28.809,52.734,11.719
1586550066.609,-11.230,28.320,31.250,10.742,-4.395
1586550066.613,-87.891,27.832,27.832,-23.438,-4.395
1586550066.617,24.414,23.926,21.973,10.742,35.156
1586550066.621,148.438,26.855,25.391,66.406,59.082
1586550066.625,37.598,28.809,29.297,39.062,5.371
1586550066.629,-75.684,26.855,27.344,-10.254,29.297
1586550066.633,-2.441,26.367,28.809,10.254,68.359
1586550066.636,148.438,28.809,29.297,66.895,47.363
1586550066.640,89.355,29.297,32.227,44.434,65.918
1586550066.644,-79.590,29.297,35.156,-12.207,63.477
1586550066.648,-52.246,31.738,32.227,-4.883,36.621
1586550066.652,101.562,28.320,34.180,47.363,19.043
1586550066.656,123.047,27.832,33.203,61.035,18.066
1586550066.660,-50.293,31.738,30.762,0.000,62.012
1586550066.664,-80.566,33.203,31.250,-17.578,41.504
1586550066.668,61.035,33.203,32.227,37.109,5.371
1586550066.672,145.020,31.250,33.203,70.801,-4.883
1586550066.676,5.371,31.738,35.645,20.508,-0.488
1586550066.679,-66.406,32.715,34.668,-26.855,49.805
1586550066.683,29.785,31.738,31.250,3.906,55.176
1586550066.687,150.879,30.762,33.203,66.895,36.621
1586550066.691,50.781,32.715,33.691,26.855,59.082
1586550066.695,-76.660,35.645,34.180,-30.762,12.207
1586550066.699,-18.066,35.156,32.715,-12.207,9.766
1586550066.703,141.602,33.691,31.738,45.898,29.785
1586550066.707,103.027,33.203,34.180,54.688,55.664
1586550066.711,-72.266,33.691,35.156,-0.488,57.617
1586550066.715,-60.059,34.180,36.133,-7.324,21.484
1586550066.719,98.633,26.855,34.668,36.133,0.977
1586550066.722,145.996,26.855,33.203,50.293,35.156
1586550066.726,-25.879,33.203,35.156,1.953,24.414
1586550066.730,-77.637,31.250,35.645,-9.766,-16.113
1586550066.734,43.945,28.320,33.691,39.551,20.508
1586550066.738,154.785,27.344,32.227,85.449,34.180
1586550066.742,11.230,32.715,35.645,33.691,10.254
1586550066.746,-93.262,37.109,36.133,-20.996,-10.254
1586550066.750,18.066,32.715,33.691,10.742,-19.043
1586550066.754,152.344,33.203,34.180,65.430,4.395
1586550066.758,59.570,35.645,31.250,26.855,-5.371
1586550066.761,-74.707,30.762,32.227,-29.785,-0.977
1586550066.765,-27.344,29.785,34.668,-11.230,28.320
1586550066.769,119.629,32.227,28.809,45.410,31.250
1586550066.773,107.422,33.203,31.738,46.387,21.973
1586550066.777,-56.152,34.180,37.109,-11.719,-20.508
1586550066.781,-49.805,37.109,35.156,-16.113,-4.395
1586550066.785,95.215,35.645,34.180,33.203,9.766
1586550066.789,144.531,32.227,35.156,59.082,21.973
1586550066.793,-20.508,32.715,35.645,15.137,15.137
1586550066.797,-79.102,31.250,37.598,-8.789,26.367
1586550066.801,42.969,31.738,39.551,25.879,76.172
1586550066.804,167.969,33.203,38.086,69.824,97.656
1586550066.808,33.691,29.785,33.203,25.879,65.918
1586550066.812,-95.215,26.855,30.273,-12.695,25.879
1586550066.816,-7.812,29.297,30.762,18.555,48.828
1586550066.820,142.578,28.320,32.715,62.012,46.875
1586550066.824,69.824,27.344,33.203,41.016,42.480
1586550066.828,-74.219,30.762,34.180,-12.695,34.180
1586550066.832,-38.086,28.320,30.273,-12.207,29.785
1586550066.836,113.770,27.344,25.879,36.621,56.641
1586550066.840,118.652,32.227,32.227,41.992,-30.762
1586550066.844,-56.641,32.227,35.156,-12.695,-72.266
1586550066.847,-73.242,30.273,34.668,-19.043,0.488
1586550066.851,71.777,32.715,31.738,27.832,32.227
1586550066.855,148.438,34.180,30.273,62.988,73.730
1586550066.859,-14.648,38.086,33.691,15.625,83.008
1586550066.863,-87.891,35.645,34.180,-18.555,34.180
1586550066.867,32.715,30.273,35.645,20.508,-18.555
1586550066.871,149.414,31.250,36.621,74.219,-8.789
1586550066.875,25.879,31.250,36.621,46.875,20.996
1586550066.879,-89.844,29.785,34.668,-15.137,28.320
1586550066.883,-10.742,32.227,34.180,-5.859,-1.465
1586550066.886,145.508,32.715,32.715,49.316,-46.387
1586550066.890,105.957,32.715,31.738,36.133,7.324
1586550066.894,-60.059,31.250,35.645,-23.926,26.855
1586550066.898,-52.246,28.320,36.621,-20.020,33.691
1586550066.902,100.098,29.297,35.156,40.039,52.734
1586550066.906,126.953,29.297,36.621,56.641,23.926
1586550066.910,-49.805,30.273,36.621,0.000,-18.555
1586550066.914,-77.148,33.691,35.645,-11.230,13.672
1586550066.918,70.312,34.668,34.668,36.133,3.418
1586550066.922,164.062,33.203,34.668,70.312,-27.832
1586550066.926,14.160,34.668,35.156,25.879,7.812
1586550066.929,-74.219,36.133,34.180,-16.113,25.391
1586550066.933,18.066,31.738,38.086,12.207,52.734
1586550066.937,149.414,30.273,35.156,65.918,-31.250
1586550066.941,58.105,32.715,33.203,37.598,-15.625
1586550066.945,-75.684,34.668,33.691,-8.789,46.875
1586550066.949,-19.043,35.645,30.762,7.324,34.668
1586550066.953,135.742,34.668,30.762,63.965,29.785
1586550066.957,108.398,37.598,31.738,59.570,45.898
1586550066.961,-66.406,35.156,33.691,-5.859,71.777
1586550066.965,-65.918,32.715,32.227,-14.160,74.707
1586550066.969,82.520,34.180,32.227,35.645,40.527
1586550066.972,129.883,31.738,32.227,56.641,8.301
1586550066.976,-28.320,32.227,30.273,-0.488,33.691
1586550066.980,-76.172,35.156,28.809,-17.090,1.465
1586550066.984,44.434,34.668,27.832,26.367,0.977
1586550066.988,156.250,33.691,30.273,62.988,3.418
1586550066.992,24.414,32.227,33.203,26.367,-17.578
1586550066.996,-83.984,33.203,34.668,-17.578,10.742
1586550067.000,-0.488,33.691,33.691,-2.441,24.902
1586550067.004,140.137,31.738,31.250,50.293,-17.578
1586550067.008,64.453,32.715,29.297,34.180,3.418
1586550067.011,-84.961,31.250,33.691,-17.090,25.391
1586550067.015,-38.086,29.297,36.621,-5.371,-1.953
1586550067.019,128.418,32.227,31.738,58.105,67.383
1586550067.023,120.605,32.715,33.203,57.617,42.969
1586550067.027,-55.664,32.227,35.645,-5.371,-22.461
1586550067.031,-58.105,33.203,34.668,-12.695,13.184
1586550067.035,85.449,31.250,30.762,34.180,74.219
1586550067.039,145.996,31.250,28.809,65.918,59.570
1586550067.043,-16.113,31.250,33.203,13.184,21.973
1586550067.047,-80.078,30.273,34.180,-15.625,1.465
1586550067.051,38.574,31.250,30.762,28.320,0.977
1586550067.054,162.109,34.180,29.785,77.637,34.668
1586550067.058,47.363,34.668,33.691,48.340,37.109
1586550067.062,-70.312,35.645,36.621,-12.207,9.766
1586550067.066,0.488,36.133,35.645,-4.883,-4.883
1586550067.070,153.809,38.086,33.203,51.758,-2.441
1586550067.074,102.539,41.992,34.180,33.691,35.645
1586550067.078,-62.988,38.574,38.574,-19.531,57.617
1586550067.082,-34.668,33.203,39.551,-4.883,12.695
1586550067.086,123.047,32.715,37.109,46.387,45.410
1586550067.090,135.254,33.203,38.574,56.152,78.125
1586550067.094,-32.227,32.715,39.551,0.000,45.898
1586550067.097,-47.852,33.691,37.598,-12.695,4.883
1586550067.101,92.773,33.203,36.133,34.668,-5.371
1586550067.105,166.504,30.762,34.180,70.312,-7.324
1586550067.109,2.441,31.250,36.621,16.602,-11.719
1586550067.113,-78.125,35.645,35.156,-21.973,71.777
1586550067.117,22.461,35.645,30.762,12.695,48.828
1586550067.121,154.785,35.156,34.180,64.941,32.715
1586550067.125,53.711,37.109,38.574,25.879,53.711
1586550067.129,-79.590,35.156,32.715,-27.832,7.812
1586550067.133,-11.719,32.715,25.879,-8.301,-44.434
1586550067.136,133.789,30.762,26.367,46.875,-8.301
1586550067.140,93.262,29.785,28.809,41.992,41.992
1586550067.144,-62.500,30.273,25.879,-17.578,11.230
1586550067.148,-41.504,30.273,24.414,-11.230,-49.316
1586550067.152,111.816,29.297,27.344,52.246,-40.527
1586550067.156,138.672,27.832,33.203,75.684,0.000
1586550067.160,-38.086,29.297,30.762,5.371,25.391
1586550067.164,-80.078,31.738,28.809,-21.973,-21.484
1586550067.168,50.293,31.250,31.738,26.367,-32.227
1586550067.172,146.973,30.273,27.344,52.246,12.695
1586550067.176,11.719,30.273,27.344,3.906,10.254
1586550067.179,-81.055,29.785,31.250,-26.367,34.180
1586550067.183,11.230,32.227,32.227,9.277,43.945
1586550067.187,164.551,30.273,32.715,57.129,45.898
1586550067.191,80.566,29.785,34.180,27.832,53.711
1586550067.195,-67.383,33.691,32.227,-20.508,42.480
1586550067.199,-10.254,32.715,31.250,0.488,41.016
1586550067.203,134.766,31.250,30.273,64.941,40.527
1586550067.207,96.191,34.180,29.297,64.453,-13.184
1586550067.211,-80.078,33.691,32.715,1.953,-4.883
1586550067.215,-79.102,32.715,31.738,-9.277,31.250
1586550067.219,78.613,33.691,30.762,37.598,45.410
1586550067.222,143.555,36.133,31.250,53.223,42.969
1586550067.226,-14.648,36.621,31.250,-3.418,7.812
1586550067.230,-65.918,34.668,34.180,-12.695,10.254
1586550067.234,46.387,31.250,34.668,26.855,43.945
1586550067.238,152.344,32.227,30.273,60.059,57.617
1586550067.242,27.344,32.715,30.762,20.508,93.750
1586550067.246,-86.426,29.785,34.668,-20.508,58.105
1586550067.250,-2.441,32.715,34.668,7.812,44.922
1586550067.254,142.090,31.738,33.691,62.988,41.016
1586550067.258,71.289,31.738,33.203,44.922,32.227
1586550067.261,-75.195,30.762,32.715,-13.184,0.977
1586550067.265,-35.156,27.344,33.203,-10.742,-57.129
1586550067.269,121.094,30.762,31.250,46.875,-2.930
1586550067.273,121.582,32.715,32.227,48.340,51.270
1586550067.277,-49.316,32.715,37.109,-5.371,34.180
1586550067.281,-60.547,33.203,34.180,-11.719,3.418
1586550067.285,79.590,34.180,32.227,33.203,41.016
1586550067.289,155.273,35.645,31.738,62.012,57.129
1586550067.293,-4.883,35.645,32.227,18.555,-24.902
1586550067.297,-86.426,36.133,34.180,-11.230,-52.734
1586550067.301,27.344,36.133,31.738,23.926,25.391
1586550067.304,141.602,35.156,32.715,71.777,77.148
1586550067.308,22.949,35.645,35.156,29.297,62.012
1586550067.312,-85.449,36.621,32.227,-27.344,99.121
1586550067.316,-6.348,37.109,30.273,-12.695,78.125
1586550067.320,146.484,36.133,30.762,51.758,61.035
1586550067.324,94.238,36.621,32.715,46.875,67.871
1586550067.328,-67.383,39.551,31.250,-12.207,0.000
1586550067.332,-51.270,37.109,28.320,-9.277,18.066
1586550067.336,100.586,35.156,31.250,46.387,20.020
1586550067.340,127.441,36.133,32.715,64.453,-11.719
1586550067.344,-45.898,36.133,34.668,12.207,41.504
1586550067.347,-69.824,37.109,35.645,-5.859,42.969
1586550067.351,67.383,36.621,35.645,40.527,-3.906
1586550067.355,158.203,36.621,33.691,68.359,-7.324
1586550067.359,9.277,40.039,31.250,13.184,70.801
1586550067.363,-85.449,36.133,34.668,-17.578,24.414
1586550067.367,15.137,34.180,33.203,11.230,-43.945
1586550067.371,155.273,37.109,28.320,60.059,15.625
1586550067.375,58.594,32.227,31.738,33.691,-15.625
1586550067.379,-90.820,29.297,33.691,-19.043,-30.762
1586550067.383,-32.715,29.785,33.691,5.859,20.508
1586550067.386,135.742,28.320,33.691,75.684,88.379
1586550067.390,107.910,31.250,34.668,67.383,128.418
1586550067.394,-53.223,34.668,35.645,-2.441,93.262
1586550067.398,-47.852,30.762,35.156,-7.324,45.410
1586550067.402,90.332,27.344,33.203,39.551,54.199
1586550067.406,136.230,29.297,33.203,64.941,84.473
1586550067.410,-25.391,31.738,36.133,10.254,45.898
1586550067.414,-64.453,34.180,34.668,-18.555,-6.348
1586550067.418,64.453,30.762,33.203,32.715,-9.766
1586550067.422,158.691,30.762,35.645,71.777,15.625
1586550067.426,10.742,29.297,35.156,18.066,-6.836
1586550067.429,-99.121,24.414,35.645,-19.531,-8.789
1586550067.433,-6.348,23.926,35.645,13.184,26.367
1586550067.437,135.254,25.879,34.180,62.500,34.180
1586550067.441,46.875,28.320,36.621,37.109,34.180
1586550067.445,-98.633,27.344,35.645,-13.672,45.898
1586550067.449,-37.109,26.855,35.645,-4.883,8.789
1586550067.453,124.023,28.809,36.133,49.805,27.344
1586550067.457,104.980,28.320,32.715,51.270,23.926
1586550067.461,-66.406,29.785,32.715,-4.395,-12.207
1586550067.465,-68.848,28.320,35.156,-14.160,20.020
1586550067.469,83.008,28.809,35.156,32.715,-4.395
1586550067.472,144.043,30.762,36.621,63.965,5.371
1586550067.476,-22.461,29.297,38.574,12.695,16.113
1586550067.480,-81.543,30.762,36.621,-16.602,-26.855
1586550067.484,34.668,30.273,33.691,29.785,5.371
1586550067.488,153.320,27.832,31.738,72.754,77.148
1586550067.492,29.785,30.273,32.227,22.949,94.238
1586550067.496,-78.613,31.738,33.203,-23.438,46.875
1586550067.500,9.766,31.738,33.203,5.859,43.457
1586550067.504,151.855,29.785,31.250,54.199,36.133
1586550067.508,78.125,29.297,29.785,39.551,38.086
1586550067.511,-89.355,27.344,34.180,-13.184,44.922
1586550067.515,-52.246,28.809,34.180,-6.348,6.836
1586550067.519,108.398,30.762,32.227,57.617,-28.320
1586550067.523,122.559,32.227,32.227,61.035,14.648
1586550067.527,-52.246,30.273,35.645,-1.465,6.836
1586550067.531,-77.148,27.344,36.621,-13.672,18.066
1586550067.535,62.988,30.762,34.668,32.715,41.016
1586550067.539,139.648,34.180,35.156,65.918,13.672
1586550067.543,-7.812,36.133,35.645,21.484,9.766
1586550067.547,-81.543,36.133,35.645,-8.301,13.184
1586550067.551,20.020,32.227,37.598,21.973,-23.926
1586550067.554,151.367,31.738,35.645,72.266,11.230
1586550067.558,48.340,34.668,35.156,23.926,35.645
1586550067.562,-81.055,33.691,38.086,-34.180,16.113
1586550067.566,-6.836,33.203,37.109,-5.371,7.324
1586550067.570,154.785,33.691,36.133,52.246,-14.160
1586550067.574,100.098,31.738,35.156,45.410,32.227
1586550067.578,-66.406,33.691,36.133,-17.578,70.312
1586550067.582,-48.340,35.645,35.156,-22.461,28.320
1586550067.586,91.797,33.691,33.203,37.109,-9.277
1586550067.590,124.023,33.691,34.668,59.570,4.883
1586550067.594,-31.738,38.086,36.621,6.348,0.000
1586550067.597,-59.082,36.133,33.691,-12.695,18.066
1586550067.601,69.336,33.203,30.273,22.461,37.598
1586550067.605,154.785,31.738,35.645,60.547,53.711
1586550067.609,9.277,29.297,38.086,15.625,49.316
1586550067.613,-83.008,31.738,31.738,-24.902,43.457
1586550067.617,20.508,33.203,29.297,18.066,57.617
1586550067.621,156.250,31.250,32.715,69.824,27.344
1586550067.625,50.781,30.273,35.645,37.598,8.301
1586550067.629,-89.355,29.297,35.645,-20.996,-2.930
1586550067.633,-29.785,28.320,28.809,-15.625,22.949
1586550067.636,126.953,29.297,26.367,46.387,22.461
1586550067.640,107.422,31.250,31.250,44.434,16.113
1586550067.644,-50.293,31.250,34.668,-13.672,36.133
1586550067.648,-41.016,30.762,36.133,-14.648,43.457
1586550067.652,101.074,30.762,35.156,36.133,21.973
1586550067.656,147.461,30.762,34.180,66.406,-18.555
1586550067.660,-25.879,28.809,37.109,16.602,-43.945
1586550067.664,-89.844,28.809,38.086,-12.695,-4.883
1586550067.668,41.992,26.855,35.156,30.273,23.926
1586550067.672,157.227,26.367,31.250,73.242,30.762
1586550067.676,30.273,28.320,31.738,25.391,39.062
1586550067.679,-66.895,29.785,35.645,-22.949,-21.484
1586550067.683,16.113,30.762,34.668,3.906,-3.418
1586550067.687,157.715,30.273,31.738,64.941,79.590
1586550067.691,87.402,32.227,31.738,42.969,24.902
1586550067.695,-68.359,33.203,34.180,-12.207,28.320
1586550067.699,-30.273,30.762,35.156,-3.418,40.039
1586550067.703,119.141,30.762,31.738,44.434,-5.859
1586550067.707,117.188,34.668,31.738,55.664,0.977
1586550067.711,-47.852,36.133,34.180,8.301,-5.859
1586550067.715,-56.152,33.203,35.645,-0.488,-29.297
1586550067.719,90.820,32.715,34.668,52.734,-3.418
1586550067.722,151.367,35.645,32.715,74.707,22.949
1586550067.726,-11.719,35.645,33.691,12.695,23.438
1586550067.730,-82.031,31.738,33.691,-14.648,23.438
1586550067.734,39.551,31.250,33.203,20.020,-61.523
1586550067.738,155.762,33.203,32.227,69.824,12.695
1586550067.742,25.879,33.203,32.227,36.133,89.844
1586550067.746,-87.402,33.691,31.250,-20.508,10.254
1586550067.750,-7.812,34.180,29.297,-1.465,27.344
1586550067.754,144.531,34.668,31.738,59.082,62.988
1586550067.758,85.938,35.645,31.738,42.969,-0.488
1586550067.761,-73.242,34.180,29.785,-14.160,-44.434
1586550067.765,-38.574,32.227,30.273,-14.648,17.578
1586550067.769,110.352,33.691,30.273,53.711,37.598
1586550067.773,122.070,33.691,33.691,90.332,28.809
1586550067.777,-47.363,31.738,38.574,18.555,2.441
1586550067.781,-69.824,33.691,36.621,-19.043,22.461
1586550067.785,61.035,31.250,31.738,23.926,64.941
1586550067.789,145.996,30.273,31.250,55.176,96.680
1586550067.793,9.277,36.133,35.156,15.625,88.379
1586550067.797,-70.801,37.598,37.109,0.488,28.809
1586550067.801,35.156,37.598,36.621,21.973,13.672
1586550067.804,161.133,35.645,33.203,50.781,4.395
1586550067.808,55.664,33.691,33.203,28.320,5.371
1586550067.812,-80.566,33.691,36.621,-13.184,26.367
1586550067.816,-27.344,34.180,35.645,4.883,-0.977
1586550067.820,128.906,31.738,34.180,63.477,-2.930
1586550067.824,100.586,33.203,34.668,57.617,12.695
1586550067.828,-57.129,35.645,37.598,-0.977,-10.254
1586550067.832,-45.898,31.250,37.598,-2.930,4.883
1586550067.836,107.422,33.203,34.180,51.270,42.969
1586550067.840,146.484,35.156,33.203,67.383,62.988
1586550067.844,-37.109,34.668,34.668,8.301,41.504
1586550067.847,-77.148,35.156,36.133,-4.395,9.766
1586550067.851,48.828,32.715,37.109,41.016,11.719
1586550067.855,140.137,31.250,34.668,76.660,52.246
1586550067.859,7.812,31.738,37.109,29.785,88.379
1586550067.863,-90.332,30.762,41.504,-19.531,38.574
1586550067.867,1.465,28.809,39.062,12.207,65.918
1586550067.871,139.648,26.367,36.621,69.336,97.656
1586550067.875,58.105,30.273,34.180,43.457,73.730
1586550067.879,-78.613,33.691,33.203,-18.066,23.438
1586550067.883,-22.949,31.738,34.180,-5.371,-2.930
1586550067.886,129.883,30.762,34.668,61.523,-4.395
1586550067.890,109.863,33.691,33.203,57.129,21.973
1586550067.894,-65.430,32.227,33.203,-4.395,50.293
1586550067.898,-65.918,30.273,35.156,-2.930,37.109
1586550067.902,74.707,31.738,32.227,42.969,41.016
1586550067.906,126.465,32.227,32.227,62.500,38.574
1586550067.910,-26.855,33.203,33.203,13.672,28.320
1586550067.914,-77.637,32.715,29.785,-11.230,15.625
1586550067.918,48.828,32.227,28.809,15.625,-52.246
1586550067.922,169.434,31.738,29.297,57.617,-8.789
1586550067.926,32.227,32.715,32.227,20.020,64.453
1586550067.929,-89.844,33.691,32.227,-24.902,31.738
1586550067.933,-0.977,32.715,32.715,7.812,36.133
1586550067.937,152.832,32.715,34.180,70.312,85.449
1586550067.941,78.125,32.715,34.668,46.387,32.715
1586550067.945,-68.848,35.645,35.156,-8.789,40.039
1586550067.949,-22.949,37.109,36.133,6.836,52.734
1586550067.953,127.441,33.691,36.621,64.453,35.156
1586550067.957,136.719,35.156,35.645,72.266,76.660
1586550067.961,-43.457,39.062,36.133,8.789,33.691
1586550067.965,-69.336,35.645,36.133,-6.348,26.855
1586550067.969,75.195,34.180,31.250,40.039,54.688
1586550067.972,145.996,35.645,29.785,66.895,81.543
1586550067.976,-20.020,34.180,33.203,9.277,93.750
1586550067.980,-92.285,34.180,35.645,-23.438,32.715
1586550067.984,36.621,35.156,34.668,23.926,11.719
1586550067.988,166.504,35.156,31.738,69.824,20.020
1586550067.992,47.363,36.133,35.645,36.621,7.324
1586550067.996,-87.891,33.691,38.086,-12.207,20.020
1586550068.000,-19.043,33.691,34.180,-1.465,-22.461
1586550068.004,128.418,35.645,31.250,49.316,18.066
1586550068.008,71.777,32.715,30.762,35.156,66.895
1586550068.011,-79.590,36.621,31.250,-18.066,59.570
1586550068.015,-46.875,35.156,31.738,-7.324,1.953
1586550068.019,104.492,28.809,32.227,41.016,-41.016
1586550068.023,127.930,31.738,34.180,55.664,24.902
1586550068.027,-37.109,32.227,35.645,1.953,-27.832
1586550068.031,-68.848,29.785,35.156,-23.926,-79.102
1586550068.035,66.895,30.762,34.180,31.250,27.832
1586550068.039,162.109,33.203,35.156,74.219,44.922
1586550068.043,11.719,31.250,38.574,25.391,-1.465
1586550068.047,-82.031,29.785,36.621,-7.324,28.320
1586550068.051,17.578,34.668,34.180,18.555,22.949
1586550068.054,149.414,34.180,34.668,62.500,-30.762
1586550068.058,49.316,37.109,32.715,26.855,49.316
1586550068.062,-77.637,41.016,35.156,-31.250,42.969
1586550068.066,-9.766,37.109,35.156,-15.625,-21.973
1586550068.070,144.531,35.156,33.203,47.852,42.969
1586550068.074,104.004,34.668,32.715,46.875,6.836
1586550068.078,-61.523,35.156,31.738,-14.648,0.488
1586550068.082,-52.734,35.156,33.203,-4.395,8.301
1586550068.086,90.332,37.109,33.203,45.898,-15.137
1586550068.090,140.625,37.598,31.738,54.688,-4.883
1586550068.094,-28.809,38.086,33.691,8.301,-17.578
1586550068.097,-76.172,37.598,37.109,-2.441,20.508
1586550068.101,54.199,36.621,37.598,33.203,-5.371
1586550068.105,154.297,35.645,34.668,59.570,-0.488
1586550068.109,14.160,32.715,33.691,17.090,31.738
1586550068.113,-92.773,33.691,34.180,-20.508,20.508
1586550068.117,-4.883,33.691,30.762,3.906,41.992
1586550068.121,149.414,29.297,28.809,61.523,24.902
1586550068.125,58.594,28.809,33.691,36.621,45.898
1586550068.129,-95.215,31.250,32.715,-19.043,26.855
1586550068.133,-34.668,32.715,32.227,-1.465,3.418
1586550068.136,119.141,32.715,33.203,47.363,35.645
1586550068.140,111.816,30.273,30.273,50.293,60.547
1586550068.144,-60.059,30.273,33.691,-6.348,39.062
1586550068.148,-63.965,33.691,36.133,-13.184,5.859
1586550068.152,92.773,34.180,35.156,38.086,11.230
1586550068.156,154.785,33.691,33.203,59.570,24.902
1586550068.160,-12.695,33.691,31.250,5.371,28.320
1586550068.164,-77.637,33.691,34.668,-31.250,0.977
1586550068.168,43.457,31.250,37.598,11.230,68.359
1586550068.172,159.180,31.738,34.180,62.012,20.508
1586550068.176,24.902,34.180,33.203,22.949,-39.062
1586550068.179,-100.586,30.762,36.621,-9.277,2.441
1586550068.183,-21.973,31.250,34.180,17.090,7.812
1586550068.187,128.906,33.203,29.785,55.664,64.941
1586550068.191,74.219,33.203,29.785,29.785,53.223
1586550068.195,-81.543,33.203,30.273,-23.926,17.090
1586550068.199,-61.035,30.762,29.785,-14.160,54.199
1586550068.203,96.191,30.273,28.320,40.527,110.840
1586550068.207,110.352,33.691,30.273,51.270,157.715
1586550068.211,-62.500,34.180,32.715,-6.348,92.285
1586550068.215,-69.824,33.691,31.250,-17.578,41.016
1586550068.219,76.660,35.645,30.273,38.086,55.664
1586550068.222,159.668,31.738,31.738,69.824,52.734
1586550068.226,0.977,30.762,35.645,8.301,74.219
1586550068.230,-83.984,31.738,32.227,-30.273,58.594
1586550068.234,21.973,30.762,29.297,9.766,77.148
1586550068.238,153.809,33.203,30.762,68.359,71.777
1586550068.242,45.898,32.227,32.715,35.156,-3.418
1586550068.246,-87.891,31.738,32.715,-19.043,22.949
1586550068.250,-14.160,31.738,27.344,4.883,0.977
1586550068.254,137.207,29.297,27.832,64.941,2.930
1586550068.258,94.727,31.738,33.203,51.270,-20.020
1586550068.261,-66.406,33.203,33.691,-10.254,-32.715
1586550068.265,-51.758,33.203,33.203,-16.602,23.438
1586550068.269,103.516,31.738,34.180,35.156,69.336
1586550068.273,145.996,33.203,35.645,56.152,17.578
1586550068.277,-27.344,33.691,36.621,-0.977,-29.297
1586550068.281,-76.172,32.227,35.156,-15.625,37.109
1586550068.285,53.223,33.203,32.227,31.738,73.730
1586550068.289,150.391,29.785,32.227,73.242,32.227
1586550068.293,8.301,29.785,33.203,28.809,43.457
1586550068.297,-82.031,32.227,33.203,-11.719,11.719
1586550068.301,12.695,31.250,36.621,24.414,-35.645
1586550068.304,150.391,27.344,35.645,72.266,-21.484
1586550068.308,64.941,27.832,33.203,34.180,-23.438
1586550068.312,-72.754,28.809,34.180,-9.277,-19.043
1586550068.316,-17.578,29.785,36.133,7.324,-20.508
1586550068.320,140.625,33.203,35.645,56.641,12.207
1586550068.324,118.164,34.180,37.598,56.641,29.297
1586550068.328,-58.105,33.691,39.551,0.000,-0.977
1586550068.332,-50.293,34.180,35.645,-5.859,10.254
1586550068.336,99.609,33.691,37.598,43.945,35.645
1586550068.340,148.926,33.691,41.504,61.523,60.059
1586550068.344,-6.348,36.133,38.574,-1.465,64.453
1586550068.347,-73.242,35.645,33.691,-27.344,19.531
1586550068.351,41.016,33.691,33.203,8.301,-26.367
1586550068.355,161.133,33.203,35.645,48.828,7.324
1586550068.359,35.156,31.738,38.574,16.113,16.602
1586550068.363,-70.801,31.250,36.133,-17.578,49.316
1586550068.367,7.812,31.250,32.715,18.555,21.484
1586550068.371,151.367,31.250,31.738,73.242,-6.836
1586550068.375,78.613,33.203,35.156,42.969,13.672
1586550068.379,-66.895,36.621,35.645,-10.254,26.367
1586550068.383,-19.531,36.621,35.156,-1.465,25.879
1586550068.386,130.859,34.180,33.691,50.293,2.930
1586550068.390,121.582,35.156,32.227,65.918,14.160
1586550068.394,-48.340,37.109,34.180,6.836,11.719
1586550068.398,-58.105,33.203,34.668,-8.789,8.789
1586550068.402,82.031,31.738,33.691,51.270,-3.906
1586550068.406,157.715,33.691,31.250,74.219,43.457
1586550068.410,-8.301,30.762,34.668,10.254,46.875
1586550068.414,-75.684,30.762,35.156,-20.508,-25.879
1586550068.418,37.598,32.227,29.785,9.277,4.883
1586550068.422,149.902,28.809,32.715,63.477,47.852
1586550068.426,34.668,30.762,34.668,26.367,57.617
1586550068.429,-78.125,33.203,31.738,-33.691,57.129
1586550068.433,-6.836,33.691,30.762,-8.301,-4.395
1586550068.437,145.020,33.203,29.297,50.293,34.668
1586550068.441,86.426,30.762,28.809,37.109,56.641
1586550068.445,-81.055,33.691,28.809,-21.973,17.578
1586550068.449,-53.711,33.203,30.762,-15.625,29.297
1586550068.453,102.539,31.738,32.715,38.086,5.371
1586550068.457,117.676,32.715,33.203,55.176,23.438
1586550068.461,-53.223,33.691,35.645,5.371,45.898
1586550068.465,-70.312,35.645,37.109,-11.719,37.109
1586550068.469,60.547,35.156,34.180,40.527,2.930
1586550068.472,136.230,33.691,31.250,66.895,-15.625
1586550068.476,1.465,35.645,30.273,12.207,-19.531
1586550068.480,-63.477,37.109,28.809,-19.043,-0.977
1586550068.484,27.832,36.621,28.320,15.137,24.414
1586550068.488,145.020,35.156,30.273,63.477,20.508
1586550068.492,33.691,33.691,31.250,26.855,-37.109
1586550068.496,-103.027,34.668,31.738,-19.043,-58.594
1586550068.500,-30.762,33.203,32.227,-0.488,20.996
1586550068.504,131.348,32.227,32.227,53.223,8.301
1586550068.508,99.609,29.785,35.645,50.781,17.578
1586550068.511,-65.918,31.250,35.156,4.395,67.383
1586550068.515,-63.965,33.691,33.203,3.418,9.766
1586550068.519,85.938,32.227,34.668,40.039,-25.391
1586550068.523,140.137,32.715,35.156,60.547,21.484
1586550068.527,-23.438,33.691,36.133,6.348,36.133
1586550068.531,-62.500,35.645,33.691,-17.578,12.695
1586550068.535,63.965,34.180,31.250,26.367,-40.039
1586550068.539,158.691,27.832,33.203,75.195,-9.277
1586550068.543,3.906,29.785,36.621,33.691,2.441
1586550068.547,-92.285,34.668,32.227,-14.160,-12.207
1586550068.551,13.672,34.668,30.762,12.695,17.578
1586550068.554,146.484,32.715,33.203,63.477,46.875
1586550068.558,57.617,31.738,33.691,30.273,86.426
1586550068.562,-83.984,34.180,31.250,-30.762,22.461
1586550068.566,-27.344,35.156,29.297,-8.789,-2.441
1586550068.570,123.535,32.715,30.273,55.664,-4.883
1586550068.574,105.469,31.250,31.250,54.688,-52.734
1586550068.578,-56.152,31.250,32.227,-3.906,-30.762
1586550068.582,-57.129,31.738,34.668,-10.254,24.902
1586550068.586,81.543,31.738,34.180,40.039,49.805
1586550068.590,136.230,34.180,30.762,64.453,21.484
1586550068.594,-23.926,33.691,32.715,0.977,-18.066
1586550068.597,-87.891,32.227,33.203,-28.809,-21.973
1586550068.601,26.855,33.203,29.785,17.578,-21.484
1586550068.605,146.973,32.227,31.250,74.219,21.484
1586550068.609,17.090,30.273,35.156,40.527,41.504
1586550068.613,-90.332,32.715,34.668,-9.277,49.316
1586550068.617,0.488,33.203,34.180,15.137,72.754
1586550068.621,141.602,28.809,31.738,62.500,76.172
1586550068.625,76.172,27.832,30.273,33.691,-17.578
1586550068.629,-78.613,30.762,31.738,-16.602,-30.273
1586550068.633,-39.551,32.715,33.203,-7.324,88.867
1586550068.636,116.699,34.180,32.227,41.504,80.078
1586550068.640,125.000,35.156,29.297,52.246,58.594
1586550068.644,-43.945,35.156,30.273,-3.906,83.496
1586550068.648,-76.660,33.691,31.250,-17.578,66.895
1586550068.652,59.570,32.715,29.785,31.250,7.324
1586550068.656,143.066,34.668,28.809,59.570,28.320
1586550068.660,-12.695,32.715,30.273,4.883,23.926
1586550068.664,-87.402,30.273,29.297,-23.438,-33.691
1586550068.668,25.391,30.273,27.832,16.602,25.879
1586550068.672,158.203,29.297,28.320,71.777,50.781
1586550068.676,45.410,32.227,30.273,41.016,30.762
1586550068.679,-75.195,33.691,29.297,-22.461,34.668
1586550068.683,-4.395,32.227,29.297,-5.859,9.766
1586550068.687,143.066,33.203,28.320,54.688,21.973
1586550068.691,97.656,35.645,28.320,43.457,77.637
1586550068.695,-74.219,37.598,29.297,-14.648,36.621
1586550068.699,-57.129,33.203,30.762,-5.859,7.324
1586550068.703,92.285,28.809,33.203,61.035,3.418
1586550068.707,133.301,32.715,32.227,69.824,-0.488
1586550068.711,-22.949,34.668,32.227,5.859,-17.578
1586550068.715,-56.641,32.227,31.738,-18.066,-18.066
1586550068.719,74.219,31.250,27.832,20.020,45.898
1586550068.722,149.902,32.715,27.832,62.500,32.715
1586550068.726,1.465,31.250,31.250,20.020,8.789
1586550068.730,-76.172,31.738,29.297,-14.648,-14.648
1586550068.734,14.648,31.738,27.344,16.113,15.625
1586550068.738,148.926,29.785,30.273,67.871,90.332
1586550068.742,59.082,33.203,33.203,41.504,48.340
1586550068.746,-77.148,36.133,34.180,-11.719,-4.395
1586550068.750,-12.695,36.133,35.645,6.348,14.648
1586550068.754,137.695,34.668,34.180,70.312,10.254
1586550068.758,108.398,34.180,32.715,57.129,7.324
1586550068.761,-51.758,34.180,33.203,-5.859,37.598
1586550068.765,-48.828,33.691,35.645,1.953,41.016
1586550068.769,91.797,31.738,39.062,54.199,37.598
1586550068.773,151.367,30.762,37.598,68.848,0.000
1586550068.777,-6.836,33.691,36.133,13.672,8.789
1586550068.781,-64.941,29.785,36.133,-10.742,30.762
1586550068.785,59.082,27.832,35.645,27.832,19.043
1586550068.789,168.945,31.250,35.156,66.406,86.914
1586550068.793,32.715,26.367,37.598,25.391,61.035
1586550068.797,-81.055,23.438,38.086,-12.207,12.695
1586550068.801,-7.324,25.879,34.180,10.254,17.090
1586550068.804,128.906,29.297,29.297,62.500,18.066
1586550068.808,52.734,28.320,29.785,43.457,20.508
1586550068.812,-86.914,26.367,31.738,-9.277,31.250
1586550068.816,-26.367,26.855,31.738,2.930,48.340
1586550068.820,124.512,26.367,30.762,57.617,16.602
1586550068.824,112.793,26.855,34.180,63.477,47.852
1586550068.828,-52.246,26.855,36.133,-0.977,32.715
1586550068.832,-56.152,27.344,33.691,-11.230,16.602
1586550068.836,83.984,27.832,31.738,35.156,18.066
1586550068.840,148.926,26.367,34.180,60.547,5.371
1586550068.844,-12.695,27.344,33.203,10.254,57.129
1586550068.847,-84.961,26.855,30.273,-23.926,-9.277
1586550068.851,37.109,28.809,30.273,15.625,-35.645
1586550068.855,160.156,31.738,32.227,72.754,39.062
1586550068.859,35.645,32.227,33.203,35.645,2.441
1586550068.863,-86.426,31.738,32.715,-16.602,12.207
1586550068.867,-11.719,28.320,32.227,14.160,74.219
1586550068.871,137.207,28.320,32.227,70.801,66.895
1586550068.875,94.727,30.762,33.691,47.852,62.500
1586550068.879,-53.711,31.738,33.203,-20.508,24.414
1586550068.883,-49.316,30.273,31.738,-20.020,19.531
1586550068.886,93.262,28.809,31.250,38.086,33.691
1586550068.890,121.094,31.250,34.180,62.988,23.926
1586550068.894,-49.805,32.715,35.156,4.395,44.434
1586550068.898,-76.660,33.203,34.668,-10.742,17.578
1586550068.902,58.105,35.645,35.156,37.598,-29.785
1586550068.906,142.090,36.133,33.691,65.918,-27.344
1586550068.910,-3.906,37.598,32.227,19.043,14.160
1586550068.914,-80.078,37.109,30.762,-17.090,45.898
1586550068.918,24.902,33.691,31.738,16.113,18.555
1586550068.922,150.391,32.227,32.715,68.848,27.832
1586550068.926,45.410,32.227,34.180,45.410,28.320
1586550068.929,-81.055,30.273,34.668,-9.766,-19.531
1586550068.933,-18.066,32.715,33.203,-1.465,-15.137
1586550068.937,130.859,30.762,34.668,54.199,15.137
1586550068.941,90.820,26.855,35.156,43.945,-25.391
1586550068.945,-74.219,27.832,35.645,-20.020,-61.523
1586550068.949,-61.523,28.320,35.645,-19.531,41.992
1586550068.953,88.379,27.832,33.203,41.504,76.660
1586550068.957,131.348,27.344,32.227,55.176,53.223
1586550068.961,-27.344,30.273,33.203,-3.906,45.898
1586550068.965,-71.777,30.273,35.156,-14.648,-22.461
1586550068.969,59.570,28.809,35.156,33.691,18.555
1586550068.972,158.203,28.809,32.227,66.895,41.992
1586550068.976,12.207,28.809,32.227,24.902,13.184
1586550068.980,-91.309,29.785,32.227,-17.090,39.551
1586550068.984,6.836,28.809,32.227,10.254,27.832
1586550068.988,159.668,29.297,31.250,57.129,4.395
1586550068.992,68.848,29.785,33.203,39.551,39.551
1586550068.996,-79.102,28.320,36.133,-6.348,61.523
1586550069.000,-25.391,30.762,34.668,-3.906,-28.320
1586550069.004,134.766,31.738,35.156,55.176,-35.156
1586550069.008,111.328,29.785,34.180,51.758,35.645
1586550069.011,-66.895,30.273,32.715,-1.953,8.789
1586550069.015,-55.664,30.273,32.227,-10.254,-3.906
1586550069.019,84.961,28.809,32.715,35.645,3.906
1586550069.023,130.859,29.297,35.645,64.453,61.035
1586550069.027,-19.531,27.344,37.598,8.301,37.109
1586550069.031,-69.336,24.902,38.574,-26.855,10.742
1586550069.035,51.270,25.391,36.133,7.812,-11.230
1586550069.039,162.109,27.832,32.715,53.711,12.207
1586550069.043,33.203,30.762,34.668,21.484,46.387
1586550069.047,-74.707,29.297,36.133,-16.113,53.711
1586550069.051,-2.441,26.855,33.691,1.953,61.523
1586550069.054,146.973,29.297,34.180,51.758,52.734
1586550069.058,85.938,33.203,36.133,36.621,27.344
1586550069.062,-65.430,32.227,36.133,-17.090,-22.949
1586550069.066,-28.809,30.273,38.086,-4.883,-16.113
1586550069.070,123.535,28.809,38.086,49.805,69.824
1586550069.074,125.488,30.273,35.645,55.664,80.566
1586550069.078,-41.992,33.203,33.691,-2.441,-55.664
1586550069.082,-57.617,32.715,32.715,-10.254,-48.340
1586550069.086,76.172,33.691,33.203,42.480,12.207
1586550069.090,158.203,36.621,31.250,63.965,-18.555
1586550069.094,1.953,34.180,32.715,15.625,24.414
1586550069.097,-77.148,35.645,34.180,-14.160,58.105
1586550069.101,40.527,38.086,31.250,6.836,72.266
1586550069.105,159.180,35.156,31.250,63.965,50.781
1586550069.109,41.992,35.645,36.133,34.668,3.906
1586550069.113,-72.266,39.551,36.133,-16.602,15.137
1586550069.117,-5.859,37.109,37.109,2.930,35.156
1586550069.121,153.809,35.156,35.156,48.828,39.062
1586550069.125,110.840,38.574,36.621,45.410,-0.977
1586550069.129,-63.965,39.551,39.551,-11.230,4.395
1586550069.133,-34.180,35.156,33.691,0.000,18.066
1586550069.136,128.418,34.668,28.320,58.594,-6.348
1586550069.140,148.438,34.180,30.273,62.012,64.453
1586550069.144,-27.344,31.250,35.156,-1.953,52.246
1586550069.148,-71.777,32.227,32.227,-21.484,32.715
1586550069.152,48.828,34.180,31.250,23.926,86.426
1586550069.156,141.113,32.715,34.180,67.383,62.500
1586550069.160,6.836,33.203,36.133,21.973,34.180
1586550069.164,-72.754,33.203,34.180,-21.484,33.691
1586550069.168,19.531,30.762,31.738,13.184,15.625
1586550069.172,144.043,33.691,34.180,74.707,26.855
1586550069.176,53.223,32.227,36.621,43.457,71.777
1586550069.179,-84.473,29.785,37.109,-11.719,62.012
1586550069.183,-29.297,34.180,40.039,5.859,43.457
1586550069.187,132.324,37.109,38.574,51.758,32.227
1586550069.191,109.375,36.621,33.203,33.203,-8.301
1586550069.195,-65.918,38.086,36.133,-22.949,-62.500
1586550069.199,-57.617,36.133,36.621,-19.531,-51.758
1586550069.203,92.773,36.621,32.227,31.738,32.715
1586550069.207,132.812,38.086,32.715,54.199,60.059
1586550069.211,-33.203,33.203,38.086,0.000,24.414
1586550069.215,-77.148,34.180,37.598,-15.137,15.625
1586550069.219,53.223,39.551,32.715,31.738,30.273
1586550069.222,161.133,36.621,34.180,63.477,-1.953
1586550069.226,30.762,37.109,34.180,11.230,12.207
1586550069.230,-69.336,38.574,32.715,-28.809,26.367
1586550069.234,17.090,37.598,37.109,9.277,67.383
1586550069.238,149.414,36.621,40.039,67.871,75.195
1586550069.242,59.570,35.645,39.062,41.504,17.090
1586550069.246,-91.797,34.180,36.133,-14.160,-0.488
1586550069.250,-39.551,32.715,34.668,-3.906,-6.836
1586550069.254,119.629,35.156,35.156,50.781,51.758
1586550069.258,106.934,36.621,33.691,56.641,83.008
1586550069.261,-64.941,35.156,33.691,-5.859,1.465
1586550069.265,-70.312,34.180,34.180,-12.695,-0.977
1586550069.269,79.102,33.203,32.227,41.504,76.660
1586550069.273,138.672,31.250,30.762,68.359,61.035
1586550069.277,-24.414,30.273,33.203,18.066,6.836
1586550069.281,-78.125,31.250,37.109,-14.648,1.953
1586550069.285,39.062,32.715,34.668,15.137,-22.461
1586550069.289,156.738,35.156,32.227,58.594,-26.367
1586550069.293,29.297,36.621,35.645,24.414,-3.418
1586550069.297,-94.238,37.109,34.180,-21.484,12.695
1586550069.301,-10.742,37.109,30.762,-0.488,31.250
1586550069.304,147.461,35.645,31.738,50.293,75.684
1586550069.308,88.379,36.133,33.203,37.109,81.055
1586550069.312,-75.195,35.645,35.156,-20.508,54.688
1586550069.316,-47.852,32.227,35.156,-10.254,-9.277
1586550069.320,108.398,29.785,28.809,52.734,-19.043
1586550069.324,124.512,29.785,27.344,59.570,55.664
1586550069.328,-51.270,29.785,31.250,-0.977,33.203
1586550069.332,-73.242,31.250,32.715,-10.254,31.250
1586550069.336,70.312,31.250,34.180,35.156,64.941
1586550069.340,148.438,30.273,31.250,63.477,69.336
1586550069.344,-1.465,32.227,28.809,11.719,37.598
1586550069.347,-83.008,30.762,32.227,-19.531,-27.344
1586550069.351,18.555,26.367,33.691,17.090,-33.203
1586550069.355,148.926,27.344,30.273,74.219,-28.809
1586550069.359,40.039,28.809,32.715,45.898,7.324
1586550069.363,-81.543,27.832,34.668,-12.695,48.340
1586550069.367,-6.836,31.738,35.156,12.207,16.113
1586550069.371,142.578,35.156,37.109,68.848,-7.324
1586550069.375,95.703,31.250,35.645,56.641,3.906
1586550069.379,-74.707,28.809,33.691,-2.930,-2.930
1586550069.383,-54.199,30.273,31.250,-8.301,3.906
1586550069.386,104.492,26.367,29.785,41.992,-26.855
1586550069.390,134.766,25.391,31.250,62.500,-44.922
1586550069.394,-28.809,27.344,32.227,4.395,-39.551
1586550069.398,-62.500,29.297,30.762,-18.555,-90.332
1586550069.402,53.711,32.227,26.855,30.273,-43.457
1586550069.406,144.043,32.227,31.250,71.289,19.531
1586550069.410,2.930,34.180,35.156,23.926,10.254
1586550069.414,-85.938,32.715,33.203,-16.602,6.348
1586550069.418,18.555,31.250,30.762,15.137,38.574
1586550069.422,158.203,31.738,28.809,66.895,54.199
1586550069.426,67.871,30.762,30.273,45.410,41.016
1586550069.429,-70.312,30.762,29.785,0.000,18.555
1586550069.433,-23.438,27.832,31.250,16.113,37.598
1586550069.437,132.812,26.855,30.762,63.965,58.594
1586550069.441,111.816,31.738,30.273,56.641,37.109
1586550069.445,-65.918,33.203,34.180,-4.395,13.672
1586550069.449,-61.523,32.227,33.203,-9.277,49.316
1586550069.453,84.961,32.715,34.668,44.434,69.824
1586550069.457,141.602,35.156,35.156,65.430,51.758
1586550069.461,-19.531,34.180,35.156,14.160,12.695
1586550069.465,-78.613,33.203,36.133,-11.230,21.973
1586550069.469,42.969,33.691,34.180,28.320,47.852
1586550069.472,144.043,34.180,30.273,74.219,56.152
1586550069.476,11.719,32.227,33.691,25.391,64.453
1586550069.480,-91.797,31.250,38.086,-21.484,41.016
1586550069.484,0.977,34.180,35.645,9.766,-15.137
1586550069.488,148.438,32.715,33.203,62.988,13.672
1586550069.492,70.312,30.762,32.715,40.039,36.621
1586550069.496,-74.707,32.227,31.738,-20.020,-0.488
1586550069.500,-39.551,31.738,35.156,-2.930,36.133
1586550069.504,112.793,34.668,32.715,46.875,86.914
1586550069.508,124.512,36.621,31.250,44.922,23.926
1586550069.511,-34.668,35.156,36.621,-7.812,-62.988
1586550069.515,-48.340,34.668,37.109,-16.113,-65.430
1586550069.519,81.543,32.715,36.133,34.668,11.719
1586550069.523,149.902,33.691,36.621,67.383,-18.066
1586550069.527,-8.789,34.668,40.039,17.578,-23.926
1586550069.531,-83.008,31.738,41.016,-12.695,1.465
1586550069.535,24.414,27.344,37.598,25.879,-9.277
1586550069.539,141.113,27.344,36.621,68.848,26.855
1586550069.543,25.879,29.785,38.086,28.320,73.730
1586550069.547,-101.074,30.762,37.598,-19.043,41.016
1586550069.551,-26.855,31.250,35.156,-1.953,49.805
1586550069.554,135.742,31.738,35.156,54.199,96.191
1586550069.558,88.379,35.645,38.086,45.410,25.391
1586550069.562,-76.172,35.645,39.062,-15.137,-26.855
1586550069.566,-54.688,35.645,37.598,-5.859,-32.227
1586550069.570,103.027,37.109,35.645,48.828,34.180
1586550069.574,128.906,37.598,37.598,58.594,59.082
1586550069.578,-41.016,38.574,38.086,5.371,23.926
1586550069.582,-73.242,37.109,37.109,-11.230,-2.930
1586550069.586,63.477,37.109,37.598,40.039,9.277
1586550069.590,148.438,38.086,35.645,70.801,34.180
1586550069.594,-5.371,39.062,36.133,14.160,68.359
1586550069.597,-95.215,39.062,38.086,-18.066,32.715
1586550069.601,13.184,35.645,36.621,16.602,-38.086
1586550069.605,164.062,36.133,34.180,71.289,-12.695
1586550069.609,60.547,38.086,35.645,42.480,39.551
1586550069.613,-84.473,37.598,40.039,-9.277,36.133
1586550069.617,-26.855,37.109,39.551,6.348,23.438
1586550069.621,119.629,36.621,36.133,62.500,33.203
1586550069.625,90.820,33.691,38.086,61.523,17.090
1586550069.629,-67.383,35.645,38.086,-0.488,5.371
1586550069.633,-58.594,36.621,34.180,3.418,53.223
1586550069.636,94.238,34.180,34.180,56.152,4.883
1586550069.640,145.996,35.156,34.668,69.824,10.254
1586550069.644,-16.113,35.645,37.109,12.207,21.484
1586550069.648,-65.430,35.156,38.086,-12.695,31.738
1586550069.652,50.781,30.762,35.156,16.113,85.938
1586550069.656,156.250,31.738,35.645,52.246,30.762
1586550069.660,25.879,36.133,39.062,15.137,-10.254
1586550069.664,-78.125,36.621,38.086,-24.414,7.812
1586550069.668,5.371,35.645,35.645,4.883,-20.996
1586550069.672,146.484,35.645,32.715,51.270,-26.367
1586550069.676,69.824,33.691,33.203,26.367,4.883
1586550069.679,-80.078,29.785,36.133,-17.578,-22.461
1586550069.683,-33.691,30.273,34.668,-9.277,33.691
1586550069.687,123.535,32.227,33.203,44.922,61.523
1586550069.691,104.004,32.715,34.180,56.152,60.059
1586550069.695,-67.383,31.250,32.715,-4.883,28.320
1586550069.699,-68.848,28.809,33.203,-19.043,-2.441
1586550069.703,79.102,32.227,33.203,34.668,-14.160
1586550069.707,142.090,34.668,33.203,65.918,-31.738
1586550069.711,-16.113,34.180,35.156,13.672,17.578
1586550069.715,-71.777,36.621,33.203,-9.277,-6.348
1586550069.719,51.270,36.621,32.227,28.809,20.508
1586550069.722,170.898,38.086,35.156,68.359,66.895
1586550069.726,46.387,39.062,35.156,23.438,69.824
1586550069.730,-77.637,33.691,32.227,-26.855,27.832
1586550069.734,0.977,31.250,31.250,-2.441,12.207
1586550069.738,146.484,31.738,29.785,50.293,52.734
1586550069.742,73.242,33.203,32.715,35.645,44.922
1586550069.746,-77.148,33.691,35.645,-20.508,24.414
1586550069.750,-33.203,35.156,31.738,-11.719,11.719
1586550069.754,125.000,36.621,26.855,45.898,49.316
1586550069.758,122.559,34.180,30.273,56.152,83.496
1586550069.761,-52.246,32.715,35.645,2.930,12.207
1586550069.765,-63.477,31.738,35.645,-6.348,-58.105
1586550069.769,74.219,29.297,33.691,43.457,-42.969
1586550069.773,148.438,31.250,32.227,70.801,4.395
1586550069.777,-3.418,31.250,34.180,12.695,7.812
1586550069.781,-83.496,29.297,37.109,-20.996,-1.953
1586550069.785,20.508,30.273,34.668,14.160,28.320
1586550069.789,153.320,30.762,35.156,63.965,53.223
1586550069.793,42.969,33.691,37.109,36.133,38.574
1586550069.797,-81.543,34.668,33.691,-6.348,19.531
1586550069.801,-15.625,31.738,34.668,5.859,20.020
1586550069.804,131.348,31.250,35.156,53.223,21.973
1586550069.808,99.121,34.668,32.227,51.758,64.453
1586550069.812,-55.176,32.227,34.180,-8.789,29.785
1586550069.816,-45.410,31.738,35.645,-14.160,19.043
1586550069.820,105.957,33.203,34.668,39.062,61.523
1586550069.824,138.672,28.809,32.715,52.734,37.598
1586550069.828,-31.738,28.809,34.668,-1.953,28.809
1586550069.832,-67.871,29.297,36.621,-16.113,47.852
1586550069.836,56.641,24.414,34.668,28.320,58.105
1586550069.840,145.508,26.855,30.762,62.500,12.695
1586550069.844,7.324,30.273,32.227,11.230,14.648
1586550069.847,-81.055,28.320,33.691,-32.227,19.043
1586550069.851,8.789,28.320,30.762,1.465,13.672
1586550069.855,141.113,26.855,30.762,53.223,27.344
1586550069.859,49.805,26.855,34.668,30.273,39.551
1586550069.863,-78.613,32.715,34.668,-13.184,14.648
1586550069.867,-25.391,32.227,32.715,-5.859,18.066
1586550069.871,129.395,28.320,32.715,48.828,50.293
1586550069.875,104.492,31.250,34.668,48.828,-23.926
1586550069.879,-68.359,30.273,35.156,-16.113,-8.301
1586550069.883,-60.059,27.832,34.668,-12.695,48.828
1586550069.886,90.820,29.297,30.273,44.434,39.551
1586550069.890,144.531,29.297,29.297,60.547,44.922
1586550069.894,-14.648,31.738,32.715,11.719,9.766
1586550069.898,-66.895,34.180,32.715,-6.348,17.090
1586550069.902,52.734,30.762,30.762,31.738,54.199
1586550069.906,158.691,30.762,28.809,72.266,61.523
1586550069.910,26.367,33.691,33.203,31.738,81.543
1586550069.914,-79.102,33.203,35.645,-12.207,38.574
1586550069.918,11.230,34.180,32.227,10.254,18.555
1586550069.922,161.133,33.203,30.762,65.918,12.695
1586550069.926,79.590,33.691,30.762,45.898,37.109
1586550069.929,-82.520,35.156,30.273,-10.742,54.688
1586550069.933,-49.805,32.715,33.203,-2.930,28.809
1586550069.937,116.699,29.785,33.691,50.781,12.695
1586550069.941,125.000,31.738,33.691,56.641,20.508
1586550069.945,-42.969,32.227,34.180,3.906,65.918
1586550069.949,-61.035,29.785,33.691,-7.324,-2.930
1586550069.953,86.914,29.785,32.715,37.109,-13.672
1586550069.957,156.738,29.785,30.273,67.383,44.922
1586550069.961,-6.836,29.785,33.691,19.043,54.688
1586550069.965,-66.406,32.227,35.156,-7.812,62.988
1586550069.969,42.969,34.668,32.227,32.715,23.926
1586550069.972,149.414,31.250,31.738,77.148,30.762
1586550069.976,32.715,32.227,31.738,41.504,-33.203
1586550069.980,-76.660,31.250,34.180,-9.766,-31.250
1586550069.984,1.953,27.832,32.715,2.930,-12.207
1586550069.988,148.438,32.227,29.297,59.082,9.277
1586550069.992,88.867,35.645,29.785,44.922,22.461
1586550069.996,-69.336,31.250,29.297,-14.648,47.852
1586550070.000,-42.480,26.855,30.762,-6.836,93.262
1586550070.004,109.863,28.320,31.738,57.129,38.574
1586550070.008,125.977,28.809,32.715,72.266,-11.230
1586550070.011,-37.598,29.785,33.691,12.207,41.016
1586550070.015,-59.082,32.227,31.250,-2.441,53.711
1586550070.019,79.102,29.297,31.738,35.645,-13.672
1586550070.023,159.180,28.320,31.738,63.965,-5.371
1586550070.027,-0.977,34.180,33.203,20.508,63.965
1586550070.031,-81.543,33.203,36.133,-13.672,35.156
1586550070.035,20.508,33.203,31.738,23.438,32.715
1586550070.039,152.344,35.156,29.297,70.801,30.762
1586550070.043,48.340,33.691,33.691,34.180,-38.086
1586550070.047,-87.402,33.203,32.715,-19.531,-36.621
1586550070.051,-14.160,31.738,32.227,3.418,-38.574
1586550070.054,140.625,29.785,33.691,67.871,-35.645
1586550070.058,98.633,32.227,34.180,59.570,8.301
1586550070.062,-65.918,34.668,37.598,1.953,10.742
1586550070.066,-49.805,35.645,38.086,-1.953,6.348
1586550070.070,100.098,33.203,34.180,51.270,20.996
1586550070.074,137.695,31.738,34.180,75.684,29.785
1586550070.078,-29.297,34.668,37.109,21.973,-3.906
1586550070.082,-69.336,33.691,38.574,1.465,-21.484
1586550070.086,61.523,34.180,35.645,42.969,-11.719
1586550070.090,155.762,36.621,31.250,70.801,-16.113
1586550070.094,21.973,32.715,33.691,27.832,25.879
1586550070.097,-72.754,33.691,33.691,-3.418,-5.859
1586550070.101,21.484,37.109,31.250,20.508,8.789
1586550070.105,172.363,36.133,33.203,67.383,38.086
1586550070.109,83.984,34.668,34.180,44.434,0.000
1586550070.113,-63.965,33.691,33.691,-4.395,-15.137
1586550070.117,-15.625,34.180,34.180,10.254,-4.395
1586550070.121,127.930,32.227,35.156,68.848,26.367
1586550070.125,104.492,29.297,34.668,66.895,46.387
1586550070.129,-67.383,30.762,36.621,10.254,29.297
1586550070.133,-67.383,30.273,37.598,9.277,-7.324
1586550070.136,80.566,30.273,37.109,52.734,-56.152
1586550070.140,145.020,34.180,35.645,57.617,-51.758
1586550070.144,-15.137,32.715,33.691,-4.395,-7.812
1586550070.148,-69.336,34.180,33.691,-23.438,30.273
1586550070.152,56.641,36.133,33.203,22.949,101.074
1586550070.156,156.738,34.180,33.203,68.848,74.707
1586550070.160,21.484,32.227,34.668,28.809,0.000
1586550070.164,-77.148,32.227,35.156,-20.996,-27.344
1586550070.168,3.418,30.762,36.621,4.395,10.742
1586550070.172,143.066,29.297,33.691,63.965,40.039
1586550070.176,72.754,27.344,33.691,41.992,89.355
1586550070.179,-86.914,25.391,36.621,-18.555,77.148
1586550070.183,-46.387,29.297,33.691,-10.254,48.828
1586550070.187,116.699,31.738,32.227,50.781,31.250
1586550070.191,126.465,33.691,31.738,54.199,-1.953
1586550070.195,-41.992,33.203,34.668,-10.254,4.883
1586550070.199,-62.988,31.738,34.180,-22.461,12.207
1586550070.203,70.312,31.738,34.180,29.785,36.621
1586550070.207,137.207,31.738,36.133,64.941,30.273
1586550070.211,-17.578,34.180,33.691,16.602,62.500
1586550070.215,-84.961,33.203,36.133,-10.254,71.289
1586550070.219,32.227,31.738,31.738,23.438,57.129
1586550070.222,161.133,31.738,26.855,64.941,22.461
1586550070.226,45.898,29.297,31.738,29.785,-10.742
1586550070.230,-75.684,27.832,32.227,-15.625,32.715
1586550070.234,-3.906,29.785,33.203,2.441,-1.953
1586550070.238,142.578,30.762,33.691,59.570,23.926
1586550070.242,92.773,32.715,32.227,49.805,95.215
1586550070.246,-72.266,31.250,35.645,-12.207,42.480
1586550070.250,-43.457,30.762,35.156,-2.441,41.504
1586550070.254,101.562,33.203,32.227,52.246,79.102
1586550070.258,114.746,29.297,33.203,62.988,42.480
1586550070.261,-39.062,31.250,37.598,1.465,-3.418
1586550070.265,-70.312,36.133,38.086,-17.578,15.625
1586550070.269,52.246,32.715,36.133,28.320,-8.789
1586550070.273,142.578,27.832,33.691,64.453,6.836
1586550070.277,2.441,29.785,29.785,22.461,-10.254
1586550070.281,-84.473,31.738,31.738,-16.113,-57.617
1586550070.285,10.254,29.297,34.180,19.531,-18.555
1586550070.289,140.625,28.320,33.691,71.777,17.578
1586550070.293,35.645,30.273,35.156,36.621,63.965
1586550070.297,-98.633,30.273,34.668,-16.113,84.473
1586550070.301,-29.297,31.738,34.668,-0.488,69.824
1586550070.304,128.418,35.156,34.180,59.570,108.887
1586550070.308,92.773,32.715,38.086,63.477,93.750
1586550070.312,-73.730,31.738,37.109,-8.301,8.301
1586550070.316,-47.363,34.180,32.227,-14.648,-17.578
1586550070.320,105.957,33.691,33.203,44.922,-26.855
1586550070.324,145.508,34.180,35.156,63.965,42.969
1586550070.328,-15.137,33.691,35.156,7.812,82.031
1586550070.332,-65.430,32.715,32.227,-11.719,20.020
1586550070.336,48.340,34.668,33.203,34.180,-32.715
1586550070.340,148.438,34.668,33.691,75.684,12.207
1586550070.344,14.160,35.156,32.227,31.250,27.832
1586550070.347,-87.891,33.203,33.691,-15.137,25.879
1586550070.351,-5.371,26.367,35.645,5.859,-0.977
1586550070.355,135.742,22.949,36.133,61.035,20.508
1586550070.359,57.129,24.414,38.574,51.270,59.082
1586550070.363,-91.797,26.855,38.086,-9.766,-8.789
1586550070.367,-44.922,28.320,34.180,-14.648,-26.367
1586550070.371,111.328,29.297,34.180,46.875,62.500
1586550070.375,109.863,31.250,33.203,49.805,53.711
1586550070.379,-53.711,32.715,33.691,-6.836,25.879
1586550070.383,-61.035,29.297,33.691,-11.230,19.531
1586550070.386,70.801,27.832,32.227,36.133,29.297
1586550070.390,131.348,28.809,32.715,61.523,53.223
1586550070.394,-29.297,28.809,33.691,13.672,-3.906
1586550070.398,-102.539,28.320,33.691,-18.066,-21.973
1586550070.402,23.926,30.273,34.668,12.207,19.043
1586550070.406,153.809,32.227,35.645,62.988,60.547
1586550070.410,40.527,35.156,35.156,28.809,74.707
1586550070.414,-65.430,35.645,35.156,-21.973,11.719
1586550070.418,8.301,35.645,36.621,-1.465,10.254
1586550070.422,153.320,37.598,35.645,62.012,39.062
1586550070.426,87.402,35.156,36.621,49.805,0.488
1586550070.429,-78.125,34.180,34.668,-11.719,-6.348
1586550070.433,-47.852,33.203,31.738,-6.836,-2.930
1586550070.437,107.910,34.180,32.227,48.828,19.531
1586550070.441,123.047,37.598,32.715,49.316,18.555
1586550070.445,-45.410,39.062,35.156,-5.859,27.832
1586550070.449,-71.777,38.086,33.691,-20.508,25.391
1586550070.453,74.219,37.109,32.715,21.973,32.227
1586550070.457,158.203,37.109,32.715,66.895,60.547
1586550070.461,3.418,34.180,35.156,18.555,71.777
1586550070.465,-72.754,35.645,37.109,-13.672,58.105
1586550070.469,37.109,37.598,35.156,22.949,-0.488
1586550070.472,163.574,31.738,35.156,68.848,-5.859
1586550070.476,48.828,30.762,37.109,46.387,30.273
1586550070.480,-79.102,34.180,35.645,-5.371,29.297
1586550070.484,-0.488,34.180,33.691,5.859,-11.719
1586550070.488,154.297,32.715,33.691,62.012,-51.758
1586550070.492,103.516,32.715,34.180,45.410,0.000
1586550070.496,-62.988,31.738,35.156,-12.695,7.812
1586550070.500,-53.711,28.809,32.227,-7.812,17.090
1586550070.504,100.586,31.250,29.785,45.410,32.227
1586550070.508,145.508,34.180,29.297,65.430,28.320
1586550070.511,-24.414,34.668,30.762,4.883,33.203
1586550070.515,-71.289,34.668,29.785,-19.043,5.859
1586550070.519,59.082,32.227,25.879,29.785,63.477
1586550070.523,143.066,30.762,27.344,64.453,102.051
1586550070.527,-8.789,32.227,32.227,19.531,89.355
1586550070.531,-88.867,35.645,32.715,-16.602,51.270
1586550070.535,15.137,34.668,28.809,9.277,47.852
1586550070.539,158.203,30.762,26.855,60.059,53.223
1586550070.543,70.801,30.762,30.273,35.156,16.602
1586550070.547,-67.871,33.203,30.762,-11.719,-18.555
1586550070.551,-19.043,33.691,27.832,13.672,-20.508
1586550070.554,123.535,31.738,31.250,68.848,-5.859
1586550070.558,104.004,32.227,34.180,53.223,19.043
1586550070.562,-58.105,35.156,31.738,-12.207,-13.672
1586550070.566,-53.711,34.180,27.832,-15.137,-14.648
1586550070.570,84.961,33.691,27.832,41.504,51.270
1586550070.574,131.348,35.156,31.250,68.359,32.715
1586550070.578,-30.273,31.250,33.203,7.812,12.695
1586550070.582,-83.008,30.762,32.227,-27.832,41.992
1586550070.586,49.316,32.715,29.297,15.137,22.949
1586550070.590,167.480,33.203,27.344,59.570,17.578
1586550070.594,40.527,35.645,29.785,15.625,70.312
1586550070.597,-69.336,35.156,33.203,-16.113,29.297
1586550070.601,12.695,34.180,30.762,11.230,-38.086
1586550070.605,144.531,34.668,29.297,64.453,6.348
1586550070.609,65.918,36.133,32.227,51.758,18.066
1586550070.613,-82.520,36.621,33.691,-0.488,-28.809
1586550070.617,-44.434,35.645,33.691,0.488,13.672
1586550070.621,113.770,36.133,34.668,54.199,41.016
1586550070.625,111.816,38.086,35.156,63.965,37.598
1586550070.629,-62.012,37.109,31.738,0.977,-10.742
1586550070.633,-74.219,32.227,27.344,-20.020,-66.895
1586550070.636,71.289,32.715,29.297,35.156,-0.977
1586550070.640,145.996,35.156,31.738,69.824,86.426
1586550070.644,-18.066,35.156,31.250,12.695,20.508
1586550070.648,-88.867,34.180,31.250,-17.578,-10.742
1586550070.652,37.109,32.715,33.203,23.438,12.695
1586550070.656,158.203,35.645,32.715,73.242,-27.344
1586550070.660,37.598,37.109,33.691,33.691,-19.531
1586550070.664,-89.844,31.738,37.598,-8.301,-3.906
1586550070.668,-19.531,31.250,33.203,11.230,23.926
1586550070.672,132.812,31.738,30.762,60.547,21.973
1586550070.676,85.449,31.250,35.645,49.316,1.953
1586550070.679,-69.336,33.691,37.109,-11.230,26.367
1586550070.683,-43.945,33.691,38.574,-3.906,19.531
1586550070.687,107.910,35.156,37.109,46.875,30.762
1586550070.691,123.047,36.621,35.645,54.688,42.480
1586550070.695,-42.480,35.645,38.086,1.953,26.855
1586550070.699,-69.336,36.133,40.527,-7.812,51.270
1586550070.703,67.383,32.227,39.062,35.645,51.270
1586550070.707,162.109,29.297,37.109,64.453,7.812
1586550070.711,13.184,32.715,36.133,19.043,41.016
1586550070.715,-76.172,33.203,37.598,-22.949,17.578
1586550070.719,22.461,31.738,38.574,2.441,0.488
1586550070.722,152.832,32.715,37.109,56.152,20.020
1586550070.726,53.223,34.180,35.156,29.297,27.344
1586550070.730,-78.613,35.156,35.156,-20.020,34.180
1586550070.734,-23.438,33.691,35.156,-6.348,23.926
1586550070.738,124.023,29.785,35.645,50.781,32.227
1586550070.742,85.449,28.809,35.645,52.246,26.855
1586550070.746,-85.938,30.762,32.227,-8.301,27.344
1586550070.750,-69.824,31.250,31.250,-17.090,3.418
1586550070.754,84.473,32.227,32.715,39.062,-45.410
1586550070.758,126.465,33.691,34.180,62.500,-28.809
1586550070.761,-37.598,28.809,37.598,7.324,-3.906
1586550070.765,-76.660,22.949,35.645,-20.996,13.672
1586550070.769,58.105,26.855,32.227,17.090,32.227
1586550070.773,161.621,30.762,33.203,59.082,10.254
1586550070.777,23.926,22.949,35.645,16.113,11.230
1586550070.781,-76.172,22.461,34.668,-19.043,55.176
1586550070.785,15.625,33.203,32.227,9.766,62.988
1586550070.789,159.668,39.062,31.738,59.082,85.938
1586550070.793,79.590,39.062,35.645,34.668,82.520
1586550070.797,-63.965,37.598,36.133,-16.113,26.855
1586550070.801,-22.461,35.645,33.691,-4.395,-4.883
1586550070.804,131.836,35.156,33.203,42.480,17.090
1586550070.808,108.887,37.109,31.250,43.457,29.297
1586550070.812,-65.918,36.621,34.180,-3.418,12.695
1586550070.816,-72.754,34.180,35.645,-9.277,9.766
1586550070.820,72.266,31.250,33.203,34.668,24.902
1586550070.824,136.230,30.762,34.668,61.035,34.668
1586550070.828,-24.414,30.762,36.133,9.766,9.277
1586550070.832,-81.055,30.273,36.621,-13.672,-0.977
1586550070.836,45.410,32.227,35.645,31.250,-2.930
1586550070.840,166.504,33.203,35.156,67.871,-14.160
1586550070.844,41.016,31.738,36.621,26.367,13.184
1586550070.847,-70.312,35.156,36.133,-7.812,4.395
1586550070.851,8.789,34.180,34.668,9.766,30.762
1586550070.855,152.832,31.250,32.227,58.594,57.617
1586550070.859,82.031,32.715,30.273,37.109,27.344
1586550070.863,-73.242,32.227,33.691,-16.113,28.320
1586550070.867,-37.598,31.250,34.668,-0.977,12.207
1586550070.871,120.117,28.320,32.227,52.246,20.996
1586550070.875,130.859,28.809,30.762,61.035,72.754
1586550070.879,-37.598,29.297,34.668,-1.953,99.121
1586550070.883,-60.059,29.297,35.645,-15.625,57.129
1586550070.886,71.777,26.855,33.203,37.598,23.438
1586550070.890,146.973,24.902,33.203,70.801,8.789
1586550070.894,-7.812,22.461,34.180,19.043,26.855
1586550070.898,-85.449,21.484,34.180,-15.137,-27.832
1586550070.902,20.020,25.879,33.691,23.438,-49.805
1586550070.906,147.461,26.367,32.715,74.219,17.090
1586550070.910,42.969,28.320,31.250,36.621,19.531
1586550070.914,-75.684,33.691,31.250,-16.113,29.785
1586550070.918,-4.395,29.785,32.715,-2.930,58.105
1586550070.922,140.625,26.367,30.762,54.199,63.477
1586550070.926,98.145,29.297,32.227,50.293,41.992
1586550070.929,-68.848,28.809,31.250,-8.301,-13.672
1586550070.933,-49.316,28.320,25.879,-14.160,8.789
1586550070.937,107.422,31.250,28.320,37.109,31.250
1586550070.941,128.418,32.227,30.273,55.176,15.625
1586550070.945,-39.062,31.250,31.250,0.000,20.020
1586550070.949,-70.312,30.762,31.738,-16.113,4.395
1586550070.953,54.199,34.180,30.273,29.785,29.785
1586550070.957,145.996,35.645,29.297,65.918,67.871
1586550070.961,12.207,34.668,34.180,23.926,6.836
1586550070.965,-77.148,33.203,34.668,-19.531,12.695
1586550070.969,18.066,32.227,31.738,6.348,112.305
1586550070.972,153.809,34.180,31.738,62.012,76.660
1586550070.976,55.664,34.668,31.738,32.227,0.977
1586550070.980,-86.426,36.621,32.715,-23.926,2.930
1586550070.984,-25.391,36.621,29.785,-8.301,37.598
1586550070.988,127.930,34.668,29.297,53.223,83.496
1586550070.992,96.191,35.156,32.715,53.711,92.285
1586550070.996,-66.895,32.715,33.203,-10.742,37.109
1586550071.000,-58.594,34.180,34.668,-13.184,-21.484
1586550071.004,89.355,35.645,35.645,44.922,-12.207
1586550071.008,144.043,35.156,33.691,72.266,75.195
1586550071.011,-14.160,37.109,33.691,9.766,54.688
1586550071.015,-73.242,33.203,35.645,-16.602,-2.930
1586550071.019,36.133,29.785,36.621,30.273,-2.930
1586550071.023,151.855,31.738,33.203,71.289,-8.301
1586550071.027,24.414,33.691,35.156,25.879,56.641
1586550071.031,-83.008,32.227,35.156,-25.879,37.109
1586550071.035,10.254,31.738,34.668,0.000,-22.949
1586550071.039,146.484,32.227,36.621,60.547,17.090
1586550071.043,66.895,31.738,38.086,45.898,33.691
1586550071.047,-74.707,30.273,38.574,-9.766,11.230
1586550071.051,-35.156,33.203,37.598,2.441,4.883
1586550071.054,115.723,32.715,38.086,63.477,10.254
1586550071.058,123.047,33.203,37.109,62.988,-4.395
1586550071.062,-37.109,38.086,36.621,0.977,-24.902
1586550071.066,-56.641,36.621,36.133,-0.977,0.000
1586550071.070,83.008,35.156,35.645,48.828,4.883
1586550071.074,149.414,36.621,37.598,72.266,65.430
1586550071.078,-16.602,33.203,39.062,23.438,72.266
1586550071.082,-84.961,34.180,36.133,-3.418,27.832
1586550071.086,27.832,36.133,36.621,28.320,36.621
1586550071.090,146.973,34.668,37.598,73.242,29.297
1586550071.094,32.715,31.250,37.598,27.344,49.316
1586550071.097,-77.148,32.715,38.574,-17.090,19.043
1586550071.101,-0.977,36.133,37.598,17.578,30.762
1586550071.105,146.973,35.645,38.086,65.430,4.395
1586550071.109,89.844,39.062,36.133,45.410,-55.176
1586550071.113,-65.918,40.527,36.621,-15.625,26.367
1586550071.117,-40.039,40.527,38.574,-13.672,33.691
1586550071.121,104.004,36.621,36.621,40.039,-23.926
1586550071.125,124.512,33.691,36.621,49.805,-52.734
1586550071.129,-43.945,36.133,35.645,-5.859,-57.129
1586550071.133,-73.242,35.156,35.156,-16.602,30.273
1586550071.136,67.383,30.762,33.691,27.344,51.270
1586550071.140,157.227,21.973,31.250,60.547,45.410
1586550071.144,10.742,25.391,30.273,14.160,45.410
1586550071.148,-63.965,34.668,30.273,-16.602,58.594
1586550071.152,42.480,41.016,31.250,19.531,41.016
1586550071.156,163.574,44.434,32.227,66.406,40.527
1586550071.160,47.363,41.992,32.227,39.062,70.312
1586550071.164,-91.797,38.574,32.715,-15.137,13.184
1586550071.168,-30.762,34.180,34.180,-3.906,-31.250
1586550071.172,122.070,34.668,33.691,49.805,0.000
1586550071.176,90.820,39.551,33.203,43.945,76.172
1586550071.179,-62.012,39.062,37.109,-7.812,20.996
1586550071.183,-44.922,35.156,36.133,-1.465,-25.879
1586550071.187,100.098,33.691,33.691,50.781,0.000
1586550071.191,133.301,33.691,34.668,62.500,57.617
1586550071.195,-29.785,34.180,31.738,-2.441,35.645
1586550071.199,-71.777,34.180,31.738,-20.020,-20.020
1586550071.203,54.688,31.250,35.645,30.273,9.277
1586550071.207,148.926,28.809,34.180,65.430,-2.441
1586550071.211,8.301,31.250,31.250,19.531,-39.551
1586550071.215,-80.566,33.203,35.156,-25.879,1.953
1586550071.219,18.066,36.133,34.668,2.930,26.855
1586550071.222,158.691,36.133,32.227,60.059,23.926
1586550071.226,67.871,35.156,33.691,38.086,10.254
1586550071.230,-73.730,33.203,32.715,-18.555,-25.879
1586550071.234,-28.320,35.645,31.250,-7.812,-31.250
1586550071.238,119.141,39.062,29.785,47.852,7.324
1586550071.242,105.957,36.133,32.227,46.387,18.066
1586550071.246,-56.152,37.598,37.109,-3.418,-30.273
1586550071.250,-58.105,40.527,33.691,-5.859,-46.387
1586550071.254,87.891,36.621,32.227,46.387,16.113
1586550071.258,145.020,35.645,32.227,73.242,45.410
1586550071.261,-19.531,35.645,31.738,18.066,15.625
1586550071.265,-71.777,34.180,33.691,-7.324,-9.277
1586550071.269,51.270,33.691,33.203,34.180,64.941
1586550071.273,165.039,33.203,30.762,70.801,79.590
1586550071.277,29.785,35.156,31.738,18.066,17.578
1586550071.281,-79.102,32.227,35.156,-25.391,32.227
1586550071.285,4.395,28.809,34.668,2.441,42.480
1586550071.289,143.066,29.297,33.203,54.199,41.992
1586550071.293,78.125,32.715,34.668,34.180,51.758
1586550071.297,-66.895,31.738,35.156,-15.625,72.266
1586550071.301,-29.785,29.785,33.691,-2.441,16.113
1586550071.304,113.281,34.180,32.715,48.828,11.230
1586550071.308,119.629,35.156,33.691,53.223,67.383
1586550071.312,-51.270,35.156,34.668,-3.418,67.871
1586550071.316,-63.965,34.668,33.691,-11.719,10.254
1586550071.320,76.172,31.738,35.645,38.086,53.711
1586550071.324,138.184,35.156,35.645,65.918,74.219
1586550071.328,-16.113,37.598,35.156,10.742,57.617
1586550071.332,-83.496,29.785,36.621,-29.297,57.129
1586550071.336,31.738,28.809,34.180,11.719,-11.719
1586550071.340,148.926,30.273,33.203,64.453,-22.461
1586550071.344,30.762,27.832,34.668,23.926,21.484
1586550071.347,-82.031,24.414,32.715,-24.414,52.246
1586550071.351,-11.230,27.832,30.273,2.441,69.336
1586550071.355,139.160,30.762,31.738,59.082,86.426
1586550071.359,90.820,32.227,34.180,43.457,47.852
1586550071.363,-73.242,32.227,36.133,-18.066,14.160
1586550071.367,-53.223,32.715,36.621,-13.184,11.230
1586550071.371,107.910,32.715,37.598,49.805,-8.789
1586550071.375,145.996,32.715,40.527,66.895,14.648
1586550071.379,-24.902,31.738,40.039,3.906,-4.395
1586550071.383,-58.594,32.227,36.133,-10.254,-5.859
1586550071.386,68.359,32.227,36.621,36.133,9.766
1586550071.390,160.156,32.227,37.109,68.848,8.789
1586550071.394,18.555,35.645,35.156,18.555,60.059
1586550071.398,-80.566,35.645,38.086,-20.508,65.430
1586550071.402,12.695,31.250,37.598,14.648,20.996
1586550071.406,145.996,32.715,32.227,64.941,43.457
1586550071.410,51.758,33.691,33.691,36.621,24.414
1586550071.414,-92.773,30.273,35.156,-18.066,3.418
1586550071.418,-36.621,29.297,35.645,-5.859,19.043
1586550071.422,122.070,30.762,34.668,55.664,39.551
1586550071.426,86.426,31.250,33.691,51.758,37.109
1586550071.429,-81.543,30.273,33.691,-1.953,9.766
1586550071.433,-61.035,32.715,35.156,0.488,-8.789
1586550071.437,98.633,34.180,31.250,45.898,7.812
1586550071.441,140.137,34.668,30.762,62.988,-20.508
1586550071.445,-30.273,34.180,34.180,3.906,-53.711
1586550071.449,-73.730,35.645,35.156,-19.531,-55.664
1586550071.453,58.594,36.133,38.574,26.855,14.160
1586550071.457,163.574,34.668,36.621,63.965,26.855
1586550071.461,25.879,33.691,39.062,22.461,-6.836
1586550071.465,-83.496,36.133,43.457,-15.625,2.441
1586550071.469,3.906,36.133,41.016,11.230,-18.066
1586550071.472,146.973,34.668,41.992,62.012,26.855
1586550071.476,75.684,37.598,40.039,38.574,20.020
1586550071.480,-60.547,39.062,37.598,-9.277,-13.184
1586550071.484,-19.531,37.598,38.574,3.418,36.133
1586550071.488,139.160,36.621,36.133,57.617,55.664
1586550071.492,132.812,38.574,36.621,66.406,-19.043
1586550071.496,-40.527,40.527,37.598,11.719,18.555
1586550071.500,-50.293,38.086,35.156,4.395,71.777
1586550071.504,94.727,36.133,34.668,49.805,38.086
1586550071.508,155.762,39.551,36.133,70.801,50.293
1586550071.511,-11.230,38.574,39.062,16.113,16.602
1586550071.515,-79.102,36.621,40.527,-10.254,-18.555
1586550071.519,40.527,36.133,38.574,20.508,35.156
1586550071.523,152.832,33.691,40.527,68.359,54.688
1586550071.527,26.367,35.645,37.598,36.621,29.785
1586550071.531,-75.195,37.109,33.691,-19.531,-9.766
1586550071.535,6.348,37.109,33.691,-4.883,28.809
1586550071.539,152.832,35.156,33.203,51.270,107.422
1586550071.543,87.891,33.203,36.133,37.109,61.035
1586550071.547,-81.543,30.273,36.621,-18.555,1.953
1586550071.551,-57.617,27.832,35.156,-11.719,23.926
1586550071.554,95.703,29.785,32.715,44.922,51.758
1586550071.558,112.793,31.250,33.203,57.617,32.227
1586550071.562,-51.270,31.250,39.062,-0.488,15.137
1586550071.566,-68.848,31.250,35.645,-15.625,-0.488
1586550071.570,71.777,34.180,30.273,33.691,-14.648
1586550071.574,144.043,35.156,31.738,70.801,37.109
1586550071.578,-5.371,33.691,34.668,21.484,44.434
1586550071.582,-74.219,35.156,36.133,-15.137,-4.395
1586550071.586,22.949,33.203,36.133,21.973,-30.762
1586550071.590,150.879,32.227,32.715,72.266,46.875
1586550071.594,50.781,34.180,31.738,41.504,32.227
1586550071.597,-71.289,32.715,33.203,-1.953,3.906
1586550071.601,-13.672,31.250,36.133,8.301,2.930
1586550071.605,120.117,31.738,35.645,56.641,-18.066
1586550071.609,85.449,30.273,36.621,58.105,50.781
1586550071.613,-75.684,29.297,38.086,-17.090,52.734
1586550071.617,-56.152,32.715,35.156,-23.926,-49.316
1586550071.621,96.680,36.133,32.715,27.832,-41.504
1586550071.625,123.535,35.156,33.203,32.715,7.324
1586550071.629,-40.527,36.133,34.668,-16.113,2.441
1586550071.633,-72.754,35.645,35.645,-26.367,8.789
1586550071.636,63.965,33.691,35.645,25.879,-13.184
1586550071.640,149.414,35.645,34.668,66.406,31.250
1586550071.644,2.930,37.109,37.109,20.020,89.844
1586550071.648,-83.008,37.598,39.551,-20.996,94.727
1586550071.652,12.695,35.156,37.598,5.859,45.898
1586550071.656,143.555,32.715,36.133,58.594,21.484
1586550071.660,50.781,33.203,33.691,21.973,11.230
1586550071.664,-85.449,31.738,30.762,-27.832,-28.809
1586550071.668,-29.785,29.297,28.809,-2.930,39.062
1586550071.672,128.906,29.297,27.344,51.270,51.270
1586550071.676,111.816,31.738,29.297,50.293,37.109
1586550071.679,-57.617,31.250,31.738,-6.836,72.266
1586550071.683,-57.617,31.250,32.715,-13.184,50.781
1586550071.687,87.891,33.203,30.762,42.969,15.625
1586550071.691,138.184,32.715,31.738,71.777,38.574
1586550071.695,-28.320,33.203,35.156,15.625,42.969
1586550071.699,-77.637,32.227,31.250,-11.230,4.883
1586550071.703,50.781,33.691,28.809,33.203,-47.363
1586550071.707,164.062,34.180,29.785,73.242,-13.672
1586550071.711,24.902,32.715,30.762,28.320,59.570
1586550071.715,-89.355,32.227,32.227,-19.531,-3.418
1586550071.719,1.465,32.227,29.785,-1.465,-20.020
1586550071.722,147.461,34.180,28.320,60.059,58.594
1586550071.726,64.453,33.203,31.738,43.457,57.617
1586550071.730,-82.031,32.227,33.691,-8.301,55.664
1586550071.734,-33.691,34.180,31.738,-6.348,35.156
1586550071.738,117.188,35.156,30.762,43.945,2.930
1586550071.742,122.559,39.062,34.180,61.035,-0.977
1586550071.746,-47.852,36.621,36.133,3.906,-18.555
1586550071.750,-68.359,31.738,35.645,-4.395,0.000
1586550071.754,77.637,32.715,34.180,44.922,-14.160
1586550071.758,154.297,30.762,32.715,66.406,25.391
1586550071.761,-11.230,27.832,33.691,16.113,54.199
1586550071.765,-88.867,26.855,37.109,-5.371,8.301
1586550071.769,31.738,26.367,38.574,33.203,-7.324
1586550071.773,164.062,28.809,39.062,74.219,28.809
1586550071.777,45.898,31.738,42.480,41.504,22.461
1586550071.781,-76.660,31.250,40.039,2.441,-18.555
1586550071.785,-1.465,31.738,36.133,11.719,10.742
1586550071.789,149.902,29.785,39.062,63.477,50.781
1586550071.793,103.027,29.785,39.551,59.082,33.203
1586550071.797,-63.965,28.809,38.574,-1.465,56.152
1586550071.801,-33.203,27.344,37.598,-0.488,41.016
1586550071.804,120.117,28.809,34.668,51.758,34.668
1586550071.808,121.094,32.227,36.621,61.523,53.711
1586550071.812,-44.434,34.668,36.621,4.395,17.090
1586550071.816,-70.312,32.227,35.645,-8.301,43.457
1586550071.820,58.105,31.250,36.621,36.621,62.500
1586550071.824,145.508,28.320,38.086,75.684,74.219
1586550071.828,0.488,29.785,38.086,25.879,-28.809
1586550071.832,-70.312,30.273,36.133,-16.113,-48.340
1586550071.836,36.133,29.785,36.621,17.090,45.898
1586550071.840,157.715,30.273,35.645,60.547,-14.648
