timestamps,TP9,AF7,AF8,TP10,Right AUX
1586550467.820,1.953,20.996,23.926,21.973,8.789
1586550467.824,-20.996,19.531,20.020,5.371,2.441
1586550467.828,52.246,20.020,17.578,25.391,56.152
1586550467.832,114.258,20.996,20.020,49.805,78.613
1586550467.836,34.180,23.438,24.902,19.043,75.195
1586550467.840,-18.066,21.484,22.949,4.395,75.684
1586550467.844,33.203,19.043,18.555,27.344,58.594
1586550467.847,107.422,21.484,19.531,57.617,51.758
1586550467.851,46.875,21.484,19.531,38.086,45.410
1586550467.855,-47.363,19.531,20.508,5.859,6.348
1586550467.859,-5.371,20.508,20.508,20.996,28.320
1586550467.863,87.402,20.996,21.973,51.270,78.613
1586550467.867,77.637,24.414,22.461,45.898,84.473
1586550467.871,-13.672,26.855,22.461,9.277,53.223
1586550467.875,-11.719,23.438,20.996,12.695,74.707
1586550467.879,63.477,22.949,18.066,45.410,-2.930
1586550467.883,83.984,24.902,21.484,57.617,7.324
1586550467.887,4.395,25.391,22.461,22.461,51.270
1586550467.890,-10.742,24.902,21.973,12.207,6.348
1586550467.894,58.594,22.461,22.461,34.668,33.691
1586550467.898,102.539,22.949,22.461,49.805,51.758
1586550467.902,0.488,22.949,22.461,20.020,37.598
1586550467.906,-54.199,22.949,22.461,-6.836,66.895
1586550467.910,10.742,23.438,22.949,13.184,49.316
1586550467.914,88.867,25.391,22.949,49.316,61.523
1586550467.918,55.664,28.809,22.949,36.621,49.316
1586550467.922,-31.250,26.367,23.438,-2.441,2.930
1586550467.926,-7.812,21.484,21.484,-1.465,3.906
1586550467.929,81.543,20.996,19.531,34.668,42.969
1586550467.933,71.777,21.973,21.484,41.992,35.645
1586550467.937,-24.414,24.902,23.438,5.371,-11.719
1586550467.941,-13.672,26.367,27.344,10.254,-4.395
1586550467.945,62.012,25.391,28.809,43.457,-3.906
1586550467.949,91.797,26.367,28.809,51.270,42.969
1586550467.953,8.789,27.344,27.344,11.230,26.367
1586550467.957,-21.484,26.855,23.926,-7.812,-7.812
1586550467.961,45.898,29.785,25.879,20.020,34.668
1586550467.965,97.656,29.297,23.926,47.852,67.383
1586550467.969,24.902,26.367,22.949,33.691,66.406
1586550467.972,-42.480,24.902,25.391,10.254,71.289
1586550467.976,5.859,26.855,23.926,19.043,72.754
1586550467.980,93.750,27.832,23.926,46.875,39.551
1586550467.984,56.152,25.879,24.902,35.156,-4.395
1586550467.988,-34.668,26.855,21.973,7.324,-23.926
1586550467.992,-11.230,26.855,20.508,7.812,-23.926
1586550467.996,82.520,28.320,20.508,29.297,-7.324
1586550468.000,95.703,28.809,19.043,35.645,-7.324
1586550468.004,-13.672,26.855,19.531,-3.906,-30.273
1586550468.008,-31.250,27.344,20.508,-7.324,-23.438
1586550468.012,48.340,27.832,18.066,30.273,4.883
1586550468.015,86.914,28.320,19.531,49.805,43.945
1586550468.019,8.789,29.785,24.414,17.090,47.852
1586550468.023,-21.973,29.297,22.949,-1.465,32.715
1586550468.027,40.527,28.809,20.508,26.367,-12.695
1586550468.031,116.211,30.762,20.020,49.805,-29.785
1586550468.035,46.875,30.762,23.438,26.855,26.855
1586550468.039,-46.875,30.273,23.438,6.348,25.879
1586550468.043,-13.184,28.320,22.461,13.184,12.695
1586550468.047,66.406,23.926,22.949,45.898,24.414
1586550468.051,48.828,23.438,23.438,55.176,62.012
1586550468.054,-43.457,23.926,25.879,28.809,40.527
1586550468.058,-24.902,26.367,25.391,20.508,30.762
1586550468.062,77.637,30.273,25.391,37.109,40.527
1586550468.066,103.027,30.273,25.879,31.738,-13.672
1586550468.070,-1.953,30.273,23.438,-11.230,-38.086
1586550468.074,-28.809,30.273,21.973,-12.207,-6.348
1586550468.078,45.898,31.738,21.973,12.695,56.152
1586550468.082,111.816,31.250,22.461,31.250,23.438
1586550468.086,43.457,31.250,23.438,10.254,-18.555
1586550468.090,-6.836,33.691,20.020,-14.160,-12.207
1586550468.094,45.898,32.715,20.508,7.812,-9.766
1586550468.097,90.820,28.320,23.438,46.875,-23.438
1586550468.101,30.762,28.809,20.996,37.109,28.809
1586550468.105,-36.133,29.785,18.066,7.812,50.293
1586550468.109,-4.883,27.344,22.949,17.090,3.418
1586550468.113,77.148,23.438,26.367,45.410,-1.953
1586550468.117,71.289,23.438,23.438,44.434,33.691
1586550468.121,-25.879,23.438,21.973,4.395,16.113
1586550468.125,-28.320,25.391,20.996,-7.324,0.977
1586550468.129,68.848,26.855,18.066,28.320,29.785
1586550468.133,107.910,26.855,19.531,44.922,44.922
1586550468.137,0.488,28.320,20.508,14.160,-9.766
1586550468.140,-19.531,25.879,20.020,3.418,33.691
1586550468.144,56.641,24.902,20.508,22.949,26.367
1586550468.148,103.516,25.879,20.020,58.594,-20.020
1586550468.152,30.273,28.809,21.973,44.922,-2.930
1586550468.156,-18.066,29.297,22.461,10.742,-4.395
1586550468.160,31.738,31.738,20.020,21.973,55.664
1586550468.164,96.680,34.180,22.461,64.453,50.781
1586550468.168,46.387,31.250,26.855,64.453,-8.789
1586550468.172,-39.551,31.250,24.414,16.113,0.977
1586550468.176,0.977,32.715,20.996,11.719,14.648
1586550468.179,87.402,28.320,22.949,41.016,-3.418
1586550468.183,86.426,30.762,20.996,39.062,20.508
1586550468.187,-9.766,34.180,20.508,2.441,60.547
1586550468.191,-2.930,29.297,23.926,-6.836,86.914
1586550468.195,80.566,29.297,22.949,32.227,76.172
1586550468.199,111.328,33.691,23.926,51.270,44.922
1586550468.203,18.066,33.691,24.902,18.555,34.180
1586550468.207,-44.434,29.297,21.484,-2.441,18.066
1586550468.211,16.113,27.832,20.020,17.090,57.617
1586550468.215,95.703,30.762,20.508,45.898,100.098
1586550468.219,27.344,29.297,23.926,30.273,40.039
1586550468.222,-42.480,28.809,22.949,0.000,-13.672
1586550468.226,11.719,29.297,17.578,2.441,3.418
1586550468.230,104.004,27.832,16.113,37.109,34.180
1586550468.234,69.824,22.949,21.484,26.367,28.320
1586550468.238,-29.785,20.508,25.391,-12.695,72.266
1586550468.242,-9.277,22.949,22.949,-10.742,70.801
1586550468.246,57.129,21.973,24.414,29.297,36.621
1586550468.250,64.453,23.438,24.902,48.828,12.695
1586550468.254,-31.250,22.461,25.879,12.207,-50.781
1586550468.258,-35.156,21.484,26.367,16.602,29.297
1586550468.262,48.340,23.438,24.902,60.547,78.125
1586550468.265,88.867,21.973,24.414,75.684,53.223
1586550468.269,14.648,19.531,25.391,32.227,34.668
1586550468.273,-33.691,20.996,24.902,-21.484,69.824
1586550468.277,11.719,23.926,24.902,-4.395,122.559
1586550468.281,81.543,25.879,24.414,41.504,96.680
1586550468.285,25.879,28.809,22.461,33.691,22.461
1586550468.289,-48.340,32.227,22.949,7.324,32.715
1586550468.293,-11.230,28.809,24.902,11.230,67.383
1586550468.297,80.566,29.297,21.973,33.691,71.289
1586550468.301,76.660,31.250,21.484,30.762,73.242
1586550468.304,-13.184,29.785,25.391,0.488,20.996
1586550468.308,-15.137,29.297,26.367,0.977,7.324
1586550468.312,50.293,29.297,25.391,40.039,27.832
1586550468.316,82.520,28.809,21.973,66.406,-38.574
1586550468.320,-11.230,27.832,21.973,46.387,-44.434
1586550468.324,-33.691,27.832,27.344,31.250,15.625
1586550468.328,47.852,25.879,27.344,40.527,41.992
1586550468.332,116.699,28.320,26.367,52.246,37.109
1586550468.336,38.086,29.785,25.879,11.719,38.086
1586550468.340,-18.066,31.250,24.902,-11.719,42.480
1586550468.344,30.273,30.762,24.414,17.578,23.438
1586550468.347,95.215,29.785,24.902,45.410,40.527
1586550468.351,56.152,33.203,25.879,38.086,-2.930
1586550468.355,-20.996,32.227,27.344,0.000,-14.160
1586550468.359,14.648,32.715,26.855,3.418,23.438
1586550468.363,86.914,28.809,24.414,40.527,26.855
1586550468.367,76.660,26.855,23.926,39.062,28.320
1586550468.371,-17.090,28.320,22.949,0.488,-7.812
1586550468.375,-17.578,28.320,19.531,0.000,4.395
1586550468.379,65.430,29.785,22.461,40.039,13.672
1586550468.383,97.656,28.320,22.461,58.594,17.578
1586550468.387,6.348,27.344,20.020,25.879,19.043
1586550468.390,-23.438,29.785,18.555,12.207,21.973
1586550468.394,43.945,29.785,18.555,26.367,15.625
1586550468.398,116.699,30.273,21.484,52.734,4.395
1586550468.402,47.852,32.227,20.996,39.062,12.695
1586550468.406,-23.926,29.785,20.996,10.742,20.020
1586550468.410,25.391,29.785,19.043,11.719,-12.207
1586550468.414,104.004,31.250,16.602,24.902,9.277
1586550468.418,58.105,29.297,20.020,22.461,49.805
1586550468.422,-26.855,29.785,17.578,5.859,39.551
1586550468.426,6.836,33.691,14.648,8.301,-5.859
1586550468.429,74.219,34.668,17.578,41.504,32.227
1586550468.433,61.035,30.273,16.602,45.410,81.543
1586550468.437,-32.715,27.344,16.602,-1.465,62.500
1586550468.441,-39.551,28.320,18.066,-14.648,98.633
1586550468.445,45.898,28.320,18.066,12.207,101.074
1586550468.449,101.562,29.297,20.508,38.086,50.293
1586550468.453,8.789,29.297,20.508,23.926,48.828
1586550468.457,-40.039,26.855,20.020,12.207,33.203
1586550468.461,21.973,23.926,20.996,28.809,18.066
1586550468.465,98.633,25.391,19.531,58.105,16.602
1586550468.469,32.715,25.879,21.973,33.203,-28.809
1586550468.472,-47.852,23.926,21.973,1.465,31.738
1586550468.476,9.766,25.391,18.555,22.949,95.703
1586550468.480,107.910,26.855,18.066,54.688,27.832
1586550468.484,81.055,25.391,18.555,34.180,-18.066
1586550468.488,-26.855,27.832,20.996,-5.371,-12.207
1586550468.492,-12.207,31.250,21.973,11.719,-31.738
1586550468.496,65.918,29.785,21.973,49.316,-20.508
1586550468.500,80.566,28.809,24.414,61.523,-4.395
1586550468.504,-7.324,33.203,23.926,26.367,37.598
1586550468.508,-29.297,32.715,22.461,-0.488,2.930
1586550468.512,49.316,31.738,20.996,14.160,-70.801
1586550468.515,100.098,34.668,20.020,28.809,-24.414
1586550468.519,21.484,32.715,19.043,1.465,2.930
1586550468.523,-20.508,32.227,17.090,-16.113,14.648
1586550468.527,34.668,32.715,19.531,3.418,21.484
1586550468.531,105.469,33.691,20.508,41.992,10.254
1586550468.535,40.527,34.180,21.484,28.809,41.016
1586550468.539,-49.805,31.250,20.508,-9.277,32.715
1586550468.543,-25.391,29.785,18.066,6.836,47.363
1586550468.547,69.336,31.250,16.602,52.734,94.727
1586550468.551,71.289,31.250,20.508,57.129,34.668
1586550468.554,-26.367,30.762,21.973,29.297,-35.645
1586550468.558,-0.977,32.227,15.625,33.691,-9.766
1586550468.562,87.402,30.273,17.578,51.758,27.832
1586550468.566,90.332,24.902,24.414,45.898,30.762
1586550468.570,2.930,25.391,24.902,1.465,41.992
1586550468.574,-2.930,27.344,20.020,-25.391,32.227
1586550468.578,60.547,27.832,20.020,-5.371,26.855
1586550468.582,113.770,29.785,20.020,33.203,42.969
1586550468.586,38.086,30.273,18.066,17.090,6.836
1586550468.590,-47.852,30.762,20.508,-11.230,46.875
1586550468.594,-21.973,31.738,20.508,-0.977,67.871
1586550468.597,62.500,30.273,19.531,24.414,-5.371
1586550468.601,35.156,31.738,21.484,17.578,-3.418
1586550468.605,-55.176,32.227,20.996,-8.789,44.434
1586550468.609,-25.391,30.273,20.508,2.930,28.320
1586550468.613,77.148,29.785,20.508,35.645,26.855
1586550468.617,72.266,31.738,18.555,41.016,71.777
1586550468.621,-29.297,30.762,17.090,8.301,-3.906
1586550468.625,-20.508,29.297,18.555,7.324,-7.324
1586550468.629,63.965,31.738,20.996,43.457,114.258
1586550468.633,107.422,29.297,21.973,72.754,103.027
1586550468.637,20.020,28.809,19.531,35.645,27.344
1586550468.640,-11.230,31.250,18.555,8.301,-6.836
1586550468.644,49.805,27.344,21.484,27.832,24.414
1586550468.648,96.680,26.367,21.484,44.434,20.508
1586550468.652,18.066,29.297,23.438,19.531,57.129
1586550468.656,-53.223,32.227,21.973,-3.906,72.754
1586550468.660,0.977,34.180,19.531,19.531,45.898
1586550468.664,87.891,31.738,20.996,53.711,71.777
1586550468.668,73.242,30.273,21.973,38.574,64.941
1586550468.672,-6.836,32.227,23.438,3.418,26.855
1586550468.676,2.441,32.715,24.902,6.836,24.902
1586550468.679,78.613,30.762,24.414,35.156,69.824
1586550468.683,83.496,30.273,25.879,52.734,29.785
1586550468.687,-0.977,32.715,25.879,21.484,3.906
1586550468.691,0.977,34.668,21.973,14.648,4.883
1586550468.695,73.242,35.156,22.461,42.480,28.809
1586550468.699,125.488,34.668,23.926,51.758,74.219
1586550468.703,32.227,30.273,22.461,24.414,15.625
1586550468.707,-50.781,27.832,22.461,7.324,24.414
1586550468.711,-3.418,27.344,25.391,26.855,6.836
1586550468.715,79.102,27.344,24.414,55.664,39.062
1586550468.719,29.785,28.320,24.902,40.039,29.785
1586550468.722,-37.598,27.344,23.926,5.371,23.438
1586550468.726,3.906,28.320,20.996,15.625,64.453
1586550468.730,80.566,29.785,20.996,44.922,41.016
1586550468.734,76.660,31.250,20.020,40.039,31.738
1586550468.738,-17.090,31.250,21.484,14.160,47.852
1586550468.742,-13.184,28.809,22.461,19.531,38.086
1586550468.746,82.520,27.832,21.973,50.293,61.523
1586550468.750,96.191,29.785,23.438,57.617,41.992
1586550468.754,6.836,29.785,22.461,17.578,33.203
1586550468.758,-11.230,30.273,20.508,3.418,38.574
1586550468.762,48.340,33.691,20.508,31.250,-3.906
1586550468.765,99.121,33.691,20.508,53.223,3.906
1586550468.769,20.020,34.668,20.996,24.414,16.602
1586550468.773,-38.086,36.621,22.461,5.371,3.418
1586550468.777,18.066,33.691,22.461,26.367,4.395
1586550468.781,95.703,29.785,25.879,62.500,18.066
1586550468.785,45.898,32.715,26.367,49.316,40.527
1586550468.789,-34.668,33.203,22.461,2.930,17.578
1586550468.793,-2.441,30.273,21.484,-0.977,-2.930
1586550468.797,89.844,30.762,20.996,34.180,16.602
1586550468.801,90.820,31.250,20.020,39.551,18.555
1586550468.804,7.324,31.738,19.043,-2.930,20.996
1586550468.808,-5.371,32.227,18.555,-3.418,4.883
1586550468.812,45.898,32.227,19.531,43.457,11.230
1586550468.816,83.496,29.785,18.066,55.664,48.340
1586550468.820,-1.953,28.320,18.555,15.625,21.973
1586550468.824,-35.645,30.762,20.508,2.441,-12.695
1586550468.828,32.715,31.738,21.973,25.879,22.949
1586550468.832,101.074,28.320,22.461,53.711,72.754
1586550468.836,26.855,28.809,20.996,22.949,18.066
1586550468.840,-31.738,27.832,20.508,-17.090,-1.953
1586550468.844,26.855,26.855,21.973,-1.465,65.918
1586550468.847,104.004,27.832,20.996,27.832,71.289
1586550468.851,72.266,28.809,22.949,22.949,50.293
1586550468.855,-30.273,30.762,25.391,-3.418,-13.184
1586550468.859,-29.297,29.785,21.973,0.977,-34.180
1586550468.863,62.500,29.297,21.484,43.457,92.773
1586550468.867,72.266,27.344,21.973,52.734,84.473
1586550468.871,-31.738,25.391,17.578,14.648,10.254
1586550468.875,-29.785,26.855,20.508,7.324,-16.602
1586550468.879,58.594,28.809,23.438,30.762,-32.227
1586550468.883,103.027,29.297,20.996,44.922,29.785
1586550468.887,15.137,29.785,19.531,15.625,63.965
1586550468.890,-26.855,31.738,16.602,-0.977,41.504
1586550468.894,22.949,29.297,18.066,14.160,12.207
1586550468.898,90.820,28.320,20.996,47.363,35.645
1586550468.902,42.969,31.250,21.973,37.109,46.387
1586550468.906,-24.902,30.273,21.973,3.418,15.625
1586550468.910,20.020,28.320,20.996,14.160,19.531
1586550468.914,89.844,28.320,22.949,36.621,79.102
1586550468.918,56.152,27.344,22.461,28.809,83.984
1586550468.922,-33.203,28.320,22.949,6.348,9.277
1586550468.926,-13.184,27.832,22.949,19.043,-30.762
1586550468.929,75.684,27.832,22.461,53.711,23.926
1586550468.933,96.191,31.250,22.949,41.992,62.988
1586550468.937,-9.766,31.738,23.438,4.395,62.988
1586550468.941,-30.762,30.273,22.949,10.254,46.387
1586550468.945,58.594,27.832,20.996,37.109,48.340
1586550468.949,111.816,26.855,22.949,60.547,39.551
1586550468.953,18.066,30.273,22.949,35.645,16.113
1586550468.957,-42.480,30.273,21.973,10.742,-26.855
1586550468.961,13.184,26.855,22.461,22.949,-22.461
1586550468.965,90.820,27.344,21.484,44.922,21.484
1586550468.969,43.457,29.785,22.461,25.879,28.809
1586550468.972,-26.855,32.227,22.461,-8.301,49.316
1586550468.976,20.020,33.691,21.484,-4.883,25.391
1586550468.980,113.281,29.785,22.949,31.738,19.043
1586550468.984,109.375,26.855,22.461,34.180,95.215
1586550468.988,2.930,27.344,20.996,0.977,95.215
1586550468.992,-31.250,26.367,23.438,4.883,10.742
1586550468.996,27.832,27.832,21.484,41.504,15.137
1586550469.000,64.453,31.250,19.043,55.664,28.809
1586550469.004,-6.836,32.227,22.949,28.809,27.832
1586550469.008,-33.691,28.320,21.484,20.508,2.930
1586550469.012,22.461,29.297,17.090,34.180,39.062
1586550469.015,75.684,29.297,19.043,51.270,75.684
1586550469.019,12.695,27.832,21.484,30.273,20.996
1586550469.023,-31.738,26.855,20.996,18.066,28.809
1586550469.027,24.902,28.809,21.484,26.855,48.828
1586550469.031,98.145,31.738,20.508,37.109,62.500
1586550469.035,57.617,30.273,19.531,33.203,28.320
1586550469.039,-21.484,29.297,20.508,8.301,28.320
1586550469.043,4.395,30.762,20.996,12.207,19.531
1586550469.047,93.262,30.273,18.555,40.039,5.371
1586550469.051,92.285,29.297,19.531,44.922,12.695
1586550469.054,-13.184,28.320,20.508,13.672,-14.648
1586550469.058,-16.602,27.832,18.066,0.488,-14.648
1586550469.062,73.242,27.344,20.020,34.668,20.020
1586550469.066,101.562,30.273,20.996,58.105,68.848
1586550469.070,20.508,36.133,21.484,29.785,63.965
1586550469.074,-3.418,31.738,21.484,12.695,32.715
1586550469.078,56.152,30.273,20.020,26.855,14.648
1586550469.082,121.094,34.668,22.949,54.688,19.531
1586550469.086,21.484,31.738,26.367,33.691,26.855
1586550469.090,-54.688,30.762,23.438,2.930,33.203
1586550469.094,18.066,32.715,22.461,17.090,29.297
1586550469.097,114.258,33.691,23.926,48.340,55.176
1586550469.101,71.289,33.203,24.902,36.621,70.801
1586550469.105,-26.855,32.227,26.367,6.348,-11.230
1586550469.109,-6.348,33.691,25.391,14.160,-34.180
1586550469.113,75.195,34.668,20.996,49.316,48.828
1586550469.117,87.402,32.715,20.996,59.082,43.457
1586550469.121,-22.461,27.832,26.367,13.672,-6.836
1586550469.125,-37.598,25.879,26.367,9.766,31.738
1586550469.129,39.551,27.344,24.902,36.133,20.996
1586550469.133,81.055,29.297,25.879,38.086,-4.395
1586550469.137,7.324,26.855,26.855,9.277,26.367
1586550469.140,-25.391,24.902,25.391,-8.789,27.832
1586550469.144,39.062,26.367,20.996,-0.488,-12.695
1586550469.148,115.723,25.879,22.949,30.762,12.207
1586550469.152,53.223,27.832,24.902,21.973,107.422
1586550469.156,-27.344,27.832,24.414,1.953,40.039
1586550469.160,0.488,26.855,24.414,13.184,-5.859
1586550469.164,74.219,29.785,20.996,37.598,40.527
1586550469.168,62.500,29.785,20.020,36.133,37.109
1586550469.172,-25.879,29.297,19.531,3.418,28.320
1586550469.176,-0.488,29.297,20.020,-6.348,-15.625
1586550469.179,96.191,29.785,21.484,19.043,-14.160
1586550469.183,96.191,28.809,22.949,41.016,39.551
1586550469.187,-8.789,27.832,26.855,16.113,9.766
1586550469.191,-40.527,26.367,28.320,9.766,0.977
1586550469.195,15.137,26.855,25.391,36.133,15.137
1586550469.199,73.242,29.297,20.996,50.781,-20.020
1586550469.203,4.883,31.738,21.484,25.879,-20.020
1586550469.207,-47.852,30.762,20.508,6.348,-29.785
1586550469.211,10.254,28.809,15.625,16.113,-18.555
1586550469.215,84.961,30.273,16.602,34.668,26.855
1586550469.219,36.133,29.297,18.066,20.020,0.977
1586550469.222,-32.227,29.785,18.555,-4.883,13.672
1586550469.226,4.883,28.320,17.578,0.488,48.828
1586550469.230,84.961,25.879,19.043,30.762,70.801
1586550469.234,75.195,28.320,20.508,33.203,29.785
1586550469.238,-25.879,32.227,19.043,-4.395,-62.988
1586550469.242,-23.438,30.273,19.531,-1.465,-25.391
1586550469.246,56.152,28.809,19.531,30.762,42.969
1586550469.250,76.172,30.762,17.090,40.527,49.316
1586550469.254,-12.207,27.832,19.531,8.789,13.184
1586550469.258,-42.969,25.391,23.438,5.859,19.043
1586550469.262,26.367,28.809,21.973,34.180,18.555
1586550469.265,99.609,32.227,18.555,55.176,8.301
1586550469.269,35.156,33.203,20.996,27.832,46.387
1586550469.273,-21.484,29.297,21.484,-13.672,70.312
1586550469.277,25.879,29.297,19.043,-9.277,59.570
1586550469.281,104.492,27.832,20.996,36.133,43.945
1586550469.285,64.453,25.391,20.020,29.297,39.551
1586550469.289,-18.555,29.785,18.555,-2.930,39.062
1586550469.293,-1.953,29.785,21.484,11.230,-8.789
1586550469.297,78.613,28.320,20.996,35.645,-31.738
1586550469.301,87.891,31.250,20.508,44.434,33.691
1586550469.304,-19.531,31.250,22.461,22.461,94.238
1586550469.308,-23.438,29.297,21.973,16.113,64.941
1586550469.312,71.289,27.832,19.043,42.969,5.371
1586550469.316,127.930,28.320,19.043,65.918,33.691
1586550469.320,34.668,28.320,23.926,39.551,48.828
1586550469.324,-20.996,24.902,25.391,9.277,-4.883
1586550469.328,30.273,24.902,24.902,18.066,26.855
1586550469.332,87.891,26.367,23.438,32.715,35.156
1586550469.336,23.438,27.344,20.996,10.254,7.812
1586550469.340,-42.480,24.902,21.973,-2.930,34.180
1586550469.344,1.465,23.926,22.949,14.160,47.363
1586550469.347,84.473,24.414,24.414,47.852,33.691
1586550469.351,58.105,20.508,26.855,49.805,45.410
1586550469.355,-30.762,20.508,28.320,17.090,59.082
1586550469.359,-11.719,23.438,26.855,20.020,36.133
1586550469.363,78.125,24.414,24.414,45.898,-23.438
1586550469.367,89.844,24.902,23.438,45.410,12.207
1586550469.371,-16.602,24.414,23.438,17.090,11.230
1586550469.375,-21.484,27.832,24.902,10.742,-62.988
1586550469.379,53.711,29.297,26.367,30.762,-12.695
1586550469.383,93.750,27.832,26.855,56.152,27.344
1586550469.387,7.324,26.367,27.832,33.691,-4.883
1586550469.390,-36.621,28.320,27.344,10.254,29.785
1586550469.394,39.551,27.344,25.879,26.855,-13.184
1586550469.398,122.070,25.879,23.926,49.805,-28.809
1586550469.402,56.641,29.785,22.949,27.344,-4.395
1586550469.406,-36.621,28.809,24.902,-0.488,-9.277
1586550469.410,-2.441,27.344,24.902,14.648,1.465
1586550469.414,74.219,26.367,23.438,43.457,-22.949
1586550469.418,66.895,27.832,22.461,40.527,-13.184
1586550469.422,-10.742,29.785,22.461,3.906,26.855
1586550469.426,-9.277,26.855,21.973,-3.906,59.570
1586550469.429,73.242,25.391,22.461,33.691,44.922
1586550469.433,96.191,28.320,23.438,51.758,7.324
1586550469.437,-5.371,25.879,22.461,8.789,11.230
1586550469.441,-33.203,25.391,21.484,-0.488,37.598
1586550469.445,46.875,27.344,22.949,34.668,23.926
1586550469.449,114.258,28.320,22.461,57.129,66.406
1586550469.453,34.668,30.762,22.461,31.738,76.660
1586550469.457,-32.715,30.762,22.949,14.160,48.828
1586550469.461,14.648,27.344,17.090,27.344,34.668
1586550469.465,97.168,27.832,17.578,42.480,55.176
1586550469.469,52.734,31.250,20.508,23.438,74.707
1586550469.472,-25.391,30.762,19.531,6.836,55.176
1586550469.476,2.441,30.273,22.949,26.367,85.449
1586550469.480,87.402,30.762,23.438,59.082,20.508
1586550469.484,78.125,27.344,21.973,56.641,-45.898
1586550469.488,-22.461,27.344,23.926,20.020,78.613
1586550469.492,-11.719,24.902,24.414,13.184,118.164
1586550469.496,72.266,24.414,22.461,33.203,69.336
1586550469.500,107.910,27.344,20.020,44.922,55.176
1586550469.504,14.160,27.344,17.578,3.418,23.438
1586550469.508,-16.113,25.879,18.066,-5.371,22.949
1586550469.512,61.035,24.414,19.043,22.949,39.551
1586550469.515,110.352,24.414,19.043,38.086,25.879
1586550469.519,10.254,26.367,20.508,15.137,32.227
1586550469.523,-59.570,26.367,19.043,-12.207,67.871
1586550469.527,-6.348,26.855,18.555,-2.930,88.867
1586550469.531,81.543,25.879,18.555,24.414,74.707
1586550469.535,55.664,23.438,20.508,21.973,35.156
1586550469.539,-21.973,24.902,24.414,-3.418,27.832
1586550469.543,2.930,28.809,22.949,6.348,90.332
1586550469.547,76.660,28.809,20.508,41.016,69.336
1586550469.551,83.496,29.785,24.414,60.547,78.125
1586550469.554,-16.602,31.738,27.344,30.762,79.590
1586550469.558,-25.391,31.738,23.926,10.254,-27.832
1586550469.562,61.035,28.320,23.926,41.992,-59.082
1586550469.566,87.891,27.344,22.949,67.383,22.949
1586550469.570,-7.812,27.832,20.020,45.410,-12.207
1586550469.574,-37.109,28.320,20.996,27.344,-43.945
1586550469.578,26.367,29.297,22.461,32.227,14.648
1586550469.582,98.633,26.855,23.438,43.457,46.387
1586550469.586,58.105,27.832,22.461,10.254,18.066
1586550469.590,-3.906,30.273,20.996,-20.508,-3.418
1586550469.594,15.625,32.227,19.531,-5.859,3.906
1586550469.597,82.031,30.273,21.973,33.691,-12.207
1586550469.601,59.082,32.227,23.438,40.039,45.410
1586550469.605,-23.438,33.691,20.508,5.859,46.387
1586550469.609,-18.555,26.367,20.020,4.883,-31.250
1586550469.613,57.129,25.879,20.996,40.527,-1.465
1586550469.617,82.520,29.785,21.484,55.664,25.391
1586550469.621,-17.090,27.344,21.484,23.926,-6.836
1586550469.625,-33.691,26.367,20.996,13.184,11.719
1586550469.629,43.457,28.320,21.973,32.715,-12.207
1586550469.633,108.887,28.809,22.461,48.340,-46.387
1586550469.637,29.297,31.250,23.438,4.395,-13.184
1586550469.640,-32.715,30.273,24.414,-24.902,0.977
1586550469.644,38.086,29.785,24.414,0.488,-22.461
1586550469.648,117.676,30.273,23.438,41.504,45.410
1586550469.652,68.848,28.809,21.484,30.762,13.184
1586550469.656,-4.395,27.832,23.438,7.812,-16.113
1586550469.660,5.859,27.344,25.879,18.555,23.926
1586550469.664,76.660,26.367,24.414,47.852,66.895
1586550469.668,68.848,26.855,25.391,53.223,59.570
1586550469.672,-24.414,27.832,27.344,26.855,10.742
1586550469.676,-17.090,28.320,27.832,27.344,-5.371
1586550469.679,61.523,29.297,29.785,52.734,54.199
1586550469.683,91.797,30.762,28.320,58.105,78.613
1586550469.687,-4.883,29.785,27.344,25.879,12.695
1586550469.691,-33.203,28.809,26.855,20.996,7.812
1586550469.695,46.875,29.297,21.484,48.340,41.992
1586550469.699,112.305,28.809,20.020,62.500,67.383
1586550469.703,46.875,28.320,22.461,19.531,94.727
1586550469.707,-3.906,27.832,25.879,-8.301,77.148
1586550469.711,38.086,28.809,22.461,6.836,10.254
1586550469.715,91.309,25.391,20.508,33.203,8.789
1586550469.719,31.250,26.855,20.508,30.273,27.832
1586550469.722,-36.133,28.320,20.508,7.324,-13.672
1586550469.726,2.441,28.809,17.090,16.113,-4.395
1586550469.730,75.195,31.250,13.672,46.875,-15.137
1586550469.734,68.359,28.809,18.066,47.852,0.977
1586550469.738,-21.973,31.250,20.020,10.254,29.785
1586550469.742,-16.113,32.715,21.484,15.137,12.695
1586550469.746,62.012,31.738,22.949,42.480,-58.105
1586550469.750,87.402,30.762,20.508,48.828,-42.480
1586550469.754,-16.602,27.832,21.484,18.066,1.465
1586550469.758,-49.805,29.297,24.902,8.301,32.227
1586550469.762,24.902,31.738,25.879,30.273,49.805
1586550469.765,94.238,30.273,23.438,41.016,40.527
1586550469.769,30.273,29.785,24.902,10.254,63.965
1586550469.773,-28.809,31.250,25.391,-16.602,45.410
1586550469.777,24.414,32.227,20.996,-4.395,47.852
1586550469.781,103.027,31.250,21.973,41.992,70.801
1586550469.785,71.777,30.273,25.879,42.969,56.641
1586550469.789,-26.367,29.297,25.879,1.465,72.754
1586550469.793,-12.207,28.809,24.902,-2.441,79.102
1586550469.797,71.777,29.297,23.926,35.156,37.598
1586550469.801,73.242,32.715,20.020,41.016,10.742
1586550469.804,-29.785,29.785,20.020,-2.441,20.020
1586550469.808,-19.531,27.344,19.531,2.930,38.086
1586550469.812,48.340,29.297,19.531,32.227,6.348
1586550469.816,68.359,30.762,22.461,52.246,0.000
1586550469.820,3.906,34.180,23.438,26.855,61.035
1586550469.824,-30.762,35.645,20.508,-2.441,65.430
1586550469.828,27.344,31.738,23.438,25.879,44.434
1586550469.832,102.051,28.320,26.367,53.223,-1.465
1586550469.836,57.617,28.809,23.438,31.250,23.926
1586550469.840,-16.602,25.391,25.391,18.555,55.176
1586550469.844,0.000,27.344,22.461,30.273,-13.184
1586550469.847,79.102,25.391,20.996,49.805,5.859
1586550469.851,69.824,21.484,22.949,53.711,36.621
1586550469.855,-22.949,25.879,20.996,14.160,23.926
1586550469.859,-18.555,29.785,20.996,-0.977,-3.906
1586550469.863,56.152,32.715,20.508,26.367,46.875
1586550469.867,82.031,25.879,22.949,40.039,40.039
1586550469.871,-10.742,27.344,21.484,-3.906,-46.387
1586550469.875,-29.297,32.715,21.973,-13.184,-13.672
1586550469.879,52.246,31.250,23.926,33.691,47.363
1586550469.883,119.141,33.203,18.555,57.617,32.715
1586550469.887,40.527,33.691,19.531,25.879,20.996
1586550469.890,-29.297,33.691,20.020,-0.977,37.109
1586550469.894,18.066,30.762,19.531,14.648,3.418
1586550469.898,101.074,28.809,22.949,49.316,57.129
1586550469.902,64.453,30.762,21.973,37.109,75.684
1586550469.906,-28.320,27.344,23.438,6.836,15.137
1586550469.910,-12.695,26.367,24.902,19.043,25.391
1586550469.914,69.336,30.273,21.484,43.945,3.418
1586550469.918,64.453,32.227,22.461,43.945,11.230
1586550469.922,-28.809,31.250,24.414,5.371,4.883
1586550469.926,-27.832,29.785,20.996,-4.395,-10.742
1586550469.929,64.941,27.832,22.461,32.227,53.711
1586550469.933,93.262,29.297,23.438,41.992,62.500
1586550469.937,-6.348,31.250,23.926,4.883,50.293
1586550469.941,-31.250,33.691,23.926,-12.207,16.602
1586550469.945,41.992,32.715,22.461,15.137,-9.766
1586550469.949,111.328,31.250,23.926,49.805,-13.672
1586550469.953,37.598,33.203,20.996,36.133,1.465
1586550469.957,-36.133,31.250,19.531,12.207,51.758
1586550469.961,8.301,30.273,21.973,21.484,53.223
1586550469.965,92.773,31.250,21.484,36.133,37.109
1586550469.969,61.035,29.297,22.461,19.043,-3.418
1586550469.972,-28.320,27.832,24.902,-0.488,7.324
1586550469.976,-9.277,29.297,24.414,10.742,61.523
1586550469.980,65.918,29.297,22.949,41.016,37.109
1586550469.984,67.383,27.344,24.902,48.828,35.156
1586550469.988,-25.391,28.320,23.438,7.812,-0.488
1586550469.992,-22.949,29.297,20.508,7.812,-51.758
1586550469.996,60.059,28.809,24.902,44.922,-14.160
1586550470.000,94.727,31.250,26.367,52.734,44.922
1586550470.004,3.906,30.762,22.461,8.301,21.973
1586550470.008,-39.062,30.273,22.949,-8.789,20.020
1586550470.012,25.879,28.809,27.344,23.438,38.086
1586550470.015,102.051,26.855,26.855,61.523,48.828
1586550470.019,37.598,30.273,23.438,26.855,91.309
1586550470.023,-33.203,31.250,23.438,-12.207,45.898
1586550470.027,6.836,30.762,24.902,4.395,4.883
1586550470.031,81.543,29.297,22.949,30.273,67.871
1586550470.035,62.012,30.762,23.438,33.203,75.684
1586550470.039,-30.273,30.273,25.391,5.371,69.824
1586550470.043,-11.230,27.344,23.926,4.883,50.781
1586550470.047,82.031,23.926,24.902,43.457,34.668
1586550470.051,99.121,23.926,24.414,49.316,18.066
1586550470.054,1.465,27.832,21.973,-0.977,6.348
1586550470.058,-26.367,30.762,21.484,0.000,0.977
1586550470.062,45.898,29.297,20.996,35.156,37.109
1586550470.066,96.191,28.809,21.973,53.223,3.418
1586550470.070,11.230,29.297,24.902,26.367,14.648
1586550470.074,-39.062,29.785,24.902,-4.883,26.367
1586550470.078,19.531,31.738,22.461,16.113,-7.324
1586550470.082,92.285,27.344,22.949,40.039,10.254
1586550470.086,55.176,29.785,25.879,20.996,7.812
1586550470.090,-8.301,31.250,22.461,4.883,-62.500
1586550470.094,15.625,26.367,18.555,28.320,-65.430
1586550470.097,88.867,26.367,20.508,52.246,2.441
1586550470.101,76.660,29.297,21.973,41.992,71.289
1586550470.105,-32.715,26.367,21.484,11.719,81.543
1586550470.109,-20.996,25.391,20.508,6.836,14.160
1586550470.113,69.824,27.832,20.996,41.016,-15.137
1586550470.117,102.051,27.344,21.973,58.105,-19.043
1586550470.121,11.719,31.738,20.996,12.695,19.531
1586550470.125,-21.484,29.785,20.020,-4.883,39.062
1586550470.129,51.758,29.297,19.043,21.484,49.316
1586550470.133,108.398,32.227,20.508,48.828,44.922
1586550470.137,35.156,31.738,22.461,28.320,65.430
1586550470.140,-24.414,29.297,21.973,2.441,69.336
1586550470.144,21.973,28.320,21.973,31.250,13.672
1586550470.148,94.238,27.344,21.973,67.871,62.500
1586550470.152,42.480,27.832,20.508,47.363,92.773
1586550470.156,-41.016,30.273,21.973,4.395,47.852
1586550470.160,-5.859,28.809,20.020,1.953,25.391
1586550470.164,78.613,25.879,20.508,26.855,31.738
1586550470.168,76.172,26.855,22.461,33.203,-0.488
1586550470.172,-5.859,28.809,21.484,4.883,6.348
1586550470.176,-3.418,27.344,22.949,10.742,62.500
1586550470.179,65.430,26.855,22.949,37.598,8.789
1586550470.183,100.586,29.785,20.508,39.062,2.441
1586550470.187,16.602,28.320,20.020,11.719,44.434
1586550470.191,-14.648,28.809,20.020,-4.883,15.137
1586550470.195,57.129,31.738,20.020,19.531,29.297
1586550470.199,129.883,30.273,17.090,52.246,74.707
1586550470.203,44.922,27.344,16.113,31.250,34.668
1586550470.207,-44.922,27.832,19.043,7.324,-15.625
1586550470.211,-5.859,25.391,22.461,21.973,-7.812
1586550470.215,78.125,25.391,22.461,38.086,6.836
1586550470.219,51.758,28.809,18.555,23.926,-16.113
1586550470.222,-41.992,27.832,19.043,0.000,10.254
1586550470.226,-10.254,25.879,22.949,2.930,15.625
1586550470.230,73.730,25.879,21.484,39.062,30.273
1586550470.234,83.984,27.832,22.461,61.523,-4.883
1586550470.238,-5.371,28.809,23.438,19.531,15.137
1586550470.242,-11.230,29.785,19.043,-5.371,40.039
1586550470.246,64.941,26.855,20.020,18.066,39.062
1586550470.250,89.355,27.344,22.461,45.410,89.355
1586550470.254,-6.348,29.785,20.020,29.785,52.734
1586550470.258,-37.598,30.273,21.973,16.602,69.336
1586550470.262,31.738,29.785,23.438,28.809,52.246
1586550470.265,98.145,31.250,22.461,38.086,20.508
1586550470.269,38.574,30.762,23.438,18.555,91.797
1586550470.273,-40.527,28.809,24.902,-7.812,63.477
1586550470.277,-1.465,29.297,23.438,13.672,53.711
1586550470.281,89.844,25.391,22.949,49.316,63.477
1586550470.285,64.941,26.855,21.484,26.855,39.062
1586550470.289,-19.531,30.273,21.484,-9.766,53.711
1586550470.293,-3.906,26.855,25.879,7.812,13.672
1586550470.297,63.477,26.367,25.879,38.574,20.996
1586550470.301,83.008,29.785,21.973,31.738,40.527
1586550470.304,0.977,31.738,23.926,4.883,19.531
1586550470.308,-11.719,32.227,24.902,5.859,33.691
1586550470.312,60.059,31.250,22.461,25.879,-12.695
1586550470.316,103.027,28.809,25.391,51.270,-19.531
1586550470.320,19.531,30.762,24.902,27.832,1.465
1586550470.324,-35.156,29.785,20.020,4.395,41.016
1586550470.328,20.020,27.832,20.996,28.809,103.027
1586550470.332,103.516,30.273,23.438,43.457,62.012
1586550470.336,47.852,32.227,22.949,20.996,49.316
1586550470.340,-37.109,28.809,26.855,-7.812,48.828
1586550470.344,4.883,29.785,25.391,0.000,20.020
1586550470.347,92.773,30.762,22.949,33.203,34.180
1586550470.351,69.824,29.297,27.344,41.504,74.219
1586550470.355,-33.203,29.785,26.367,18.555,58.594
1586550470.359,-21.484,28.320,25.391,17.090,55.176
1586550470.363,60.547,31.738,23.926,39.551,24.902
1586550470.367,84.473,32.227,23.926,49.805,41.504
1586550470.371,-7.812,30.273,25.391,14.160,67.871
1586550470.375,-45.410,32.715,24.414,0.488,70.801
1586550470.379,10.254,30.273,26.367,23.926,46.875
1586550470.383,80.566,32.227,23.926,49.805,78.125
1586550470.387,26.367,34.180,24.414,23.438,55.664
1586550470.390,-21.484,31.738,27.832,-9.766,20.508
1586550470.394,23.926,33.203,25.879,4.395,20.996
1586550470.398,94.727,32.227,26.855,41.992,40.527
1586550470.402,54.688,34.668,28.809,32.227,26.367
1586550470.406,-29.297,36.621,25.391,-5.859,-23.926
1586550470.410,8.789,33.691,23.926,2.930,59.082
1586550470.414,90.820,33.691,23.926,41.504,23.438
1586550470.418,88.379,36.621,25.391,50.781,-30.273
1586550470.422,-0.977,36.621,27.832,13.672,8.301
1586550470.426,-7.812,34.180,24.414,12.695,33.691
1586550470.429,74.219,29.297,21.973,43.945,26.855
1586550470.433,111.816,26.367,22.461,58.105,39.551
1586550470.437,19.531,29.297,23.438,25.391,90.820
1586550470.441,-13.672,31.250,24.414,5.371,41.504
1586550470.445,34.180,29.297,22.949,30.273,7.324
1586550470.449,82.520,29.297,23.438,51.270,26.367
1586550470.453,8.789,28.809,26.367,21.484,44.922
1586550470.457,-52.734,30.273,26.855,-2.441,56.152
1586550470.461,7.324,30.762,24.414,13.184,22.949
1586550470.465,84.961,30.273,23.438,40.039,19.531
1586550470.469,64.453,29.297,28.809,45.410,49.316
1586550470.472,-22.461,27.832,29.297,15.137,30.273
1586550470.476,-4.395,28.320,25.391,7.324,63.477
1586550470.480,84.961,30.273,22.461,30.762,91.309
1586550470.484,96.191,30.762,21.973,35.156,31.738
1586550470.488,-4.883,28.320,22.949,4.883,-8.301
1586550470.492,-20.020,28.320,21.484,5.371,35.645
1586550470.496,64.453,26.855,21.973,28.320,63.965
1586550470.500,103.516,28.809,21.484,42.969,11.719
1586550470.504,0.488,26.367,22.949,21.973,-29.297
1586550470.508,-40.039,25.391,24.902,16.113,-17.090
1586550470.512,19.531,30.762,23.926,36.133,23.438
1586550470.515,77.148,29.297,23.926,49.316,100.586
1586550470.519,31.738,25.879,23.438,29.785,66.406
1586550470.523,-34.180,27.344,23.926,-3.418,5.859
1586550470.527,7.324,28.320,24.414,13.184,35.645
1586550470.531,83.008,26.855,22.461,58.594,33.691
1586550470.535,62.012,28.809,22.461,53.223,83.496
1586550470.539,-7.324,32.227,20.020,5.371,40.039
1586550470.543,14.648,33.691,20.020,-8.301,-10.742
1586550470.547,86.426,34.668,23.438,24.414,4.883
1586550470.551,104.492,33.203,23.438,45.898,17.090
1586550470.554,1.465,31.738,24.414,16.113,74.707
1586550470.558,-22.949,33.203,27.344,9.766,15.625
1586550470.562,59.570,35.156,25.879,33.691,2.930
1586550470.566,97.168,33.203,23.438,56.641,23.926
1586550470.570,6.836,26.855,25.391,32.715,4.395
1586550470.574,-49.805,26.367,27.344,4.883,5.859
1586550470.578,3.418,28.320,27.832,30.273,26.855
1586550470.582,82.520,26.367,28.320,60.059,26.855
1586550470.586,41.992,26.855,28.320,39.551,-4.395
1586550470.590,-34.668,27.832,26.367,1.953,3.418
1586550470.594,-1.953,26.855,26.855,6.348,16.602
1586550470.597,79.590,27.344,26.367,48.828,17.090
1586550470.601,62.988,28.809,25.391,50.781,80.078
1586550470.605,-22.461,31.738,27.832,3.906,41.504
1586550470.609,-4.395,34.180,26.855,-3.906,3.418
1586550470.613,63.477,32.715,22.949,24.902,45.410
1586550470.617,90.820,29.297,24.902,47.363,32.715
1586550470.621,14.160,29.297,26.367,27.344,7.812
1586550470.625,-20.996,27.832,25.879,12.695,-15.137
1586550470.629,15.137,25.391,24.414,31.250,-19.531
1586550470.633,67.871,28.809,22.461,54.199,11.719
1586550470.637,13.184,27.832,24.414,29.297,57.617
1586550470.640,-36.133,30.273,23.926,0.977,34.668
1586550470.644,21.484,32.227,24.414,14.160,-7.324
1586550470.648,96.680,27.832,25.879,58.105,5.859
1586550470.652,59.082,30.762,25.391,53.711,-37.109
1586550470.656,-19.043,34.668,25.879,9.766,32.227
1586550470.660,6.348,32.715,23.438,9.277,39.551
1586550470.664,80.078,30.273,23.926,39.062,-13.672
1586550470.668,74.707,33.203,23.438,36.133,48.340
1586550470.672,-25.391,31.738,22.949,-2.441,20.508
1586550470.676,-23.926,28.320,21.973,0.488,3.906
1586550470.679,64.941,29.297,22.949,31.738,43.457
1586550470.683,102.539,30.762,25.879,48.340,13.184
1586550470.687,8.789,30.762,24.902,21.973,-2.930
1586550470.691,-33.203,29.297,28.809,11.230,-42.969
1586550470.695,30.273,31.250,28.809,31.250,49.316
1586550470.699,105.957,31.738,24.902,62.988,104.980
1586550470.703,40.039,27.832,25.391,36.621,60.547
1586550470.707,-37.598,31.250,24.902,-0.488,67.871
1586550470.711,-6.836,32.715,24.414,9.766,47.363
1586550470.715,80.566,30.762,22.949,41.992,47.852
1586550470.719,72.754,31.738,22.461,35.645,23.438
1586550470.722,-24.902,29.297,25.879,-8.301,-20.020
1586550470.726,-25.879,28.320,23.926,-8.301,4.395
1586550470.730,49.316,26.855,21.484,33.203,43.457
1586550470.734,63.965,26.367,20.508,47.363,35.156
1586550470.738,-28.809,25.391,22.461,17.090,9.766
1586550470.742,-38.574,25.879,24.414,-2.930,40.039
1586550470.746,37.109,30.762,23.926,8.789,27.832
1586550470.750,105.957,33.691,21.973,47.363,28.320
1586550470.754,35.645,30.273,25.391,30.273,66.406
1586550470.758,-20.996,25.879,31.738,2.930,40.527
1586550470.762,40.527,27.344,29.785,21.484,48.340
1586550470.765,101.074,23.438,29.785,41.504,45.898
1586550470.769,35.156,27.344,27.344,23.438,34.668
1586550470.773,-52.734,30.762,30.762,5.859,58.594
1586550470.777,-15.137,26.855,35.156,29.785,53.711
1586550470.781,95.703,33.691,28.809,55.664,-6.836
1586550470.785,83.008,33.691,27.832,41.992,-14.160
1586550470.789,-33.691,25.879,28.320,6.348,-0.977
1586550470.793,-21.973,28.320,23.926,5.371,-0.488
1586550470.797,66.406,33.691,24.902,32.715,39.551
1586550470.801,72.266,32.715,24.902,37.598,66.895
1586550470.804,-19.531,30.762,22.949,-2.441,49.805
1586550470.808,-19.043,32.227,25.879,-5.371,13.672
1586550470.812,60.547,31.738,27.344,27.344,34.180
1586550470.816,103.516,29.785,24.414,51.270,43.457
1586550470.820,23.438,28.809,23.438,27.832,20.020
1586550470.824,-28.320,32.715,24.902,5.371,-38.086
1586550470.828,28.809,33.691,25.391,23.438,-40.039
1586550470.832,104.980,26.855,25.879,55.664,22.461
1586550470.836,45.410,26.855,28.809,52.734,12.695
1586550470.840,-49.805,28.809,29.297,15.625,16.113
1586550470.844,-9.277,30.273,24.902,21.973,-23.926
1586550470.847,82.031,33.691,25.879,54.199,-14.160
1586550470.851,81.543,32.227,29.785,51.758,4.883
1586550470.855,-6.348,33.203,27.832,10.254,-34.668
1586550470.859,-8.789,35.645,26.367,0.488,-22.949
1586550470.863,53.711,29.785,28.809,27.344,-9.277
1586550470.867,81.055,24.902,30.273,41.504,26.367
1586550470.871,-1.953,27.344,28.809,20.020,58.594
1586550470.875,-19.531,30.273,26.855,19.043,26.855
1586550470.879,55.176,30.273,25.391,48.828,42.480
1586550470.883,119.629,29.785,23.926,73.730,50.781
1586550470.887,54.199,32.715,24.902,47.363,18.066
1586550470.890,-29.785,34.668,23.438,3.906,22.461
1586550470.894,13.672,33.691,22.461,8.789,29.785
1586550470.898,93.750,34.668,24.414,47.852,73.730
1586550470.902,46.387,34.668,24.414,44.434,64.453
1586550470.906,-36.133,35.156,23.926,9.277,53.223
1586550470.910,-0.977,36.133,24.902,13.672,65.918
1586550470.914,83.984,36.133,27.832,40.039,90.820
1586550470.918,100.586,36.621,28.320,49.805,85.449
1586550470.922,4.883,34.180,27.344,24.414,35.156
1586550470.926,-25.879,35.156,26.855,12.695,20.020
1586550470.929,51.270,35.645,25.879,32.715,-17.578
1586550470.933,94.727,30.273,26.367,54.199,8.789
1586550470.937,4.883,30.762,27.344,29.297,25.879
1586550470.941,-27.344,35.156,25.879,12.695,5.371
1586550470.945,30.762,34.668,23.926,34.180,-28.320
1586550470.949,95.703,32.227,26.367,54.688,17.090
1586550470.953,22.949,32.715,28.809,34.668,105.957
1586550470.957,-55.176,32.715,27.832,3.906,43.945
1586550470.961,-1.953,29.785,26.367,15.625,27.344
1586550470.965,83.984,29.785,27.832,55.664,43.945
1586550470.969,66.406,29.785,26.367,50.781,1.465
1586550470.972,-9.277,33.203,23.926,4.395,1.953
1586550470.976,-5.371,35.156,25.391,1.465,13.184
1586550470.980,60.059,34.668,25.879,36.621,3.906
1586550470.984,91.797,35.156,25.879,46.387,64.453
1586550470.988,11.230,31.738,27.832,19.043,93.750
1586550470.992,-9.766,28.809,30.273,14.160,83.496
1586550470.996,68.359,30.273,25.879,23.438,72.754
1586550471.000,127.930,29.297,24.414,46.875,27.832
1586550471.004,36.133,27.832,27.344,34.180,27.832
1586550471.008,-43.457,26.855,27.832,10.742,12.207
1586550471.012,11.719,27.344,28.320,27.832,-28.320
1586550471.015,101.074,28.809,27.344,56.152,24.902
1586550471.019,46.875,28.809,28.320,38.574,73.730
1586550471.023,-36.133,26.367,29.297,14.160,50.781
1586550471.027,8.301,26.855,26.855,25.879,-35.156
1586550471.031,87.402,29.785,25.879,46.875,-19.531
1586550471.035,68.848,26.855,27.344,47.363,56.641
1586550471.039,-28.809,23.926,26.855,23.438,26.367
1586550471.043,-15.137,26.855,25.879,11.230,40.039
1586550471.047,64.941,30.273,24.414,30.762,67.383
1586550471.051,89.844,30.273,26.367,47.363,51.758
1586550471.054,2.441,30.762,27.344,20.508,-6.836
1586550471.058,-28.809,29.297,26.367,2.441,-24.414
1586550471.062,39.062,28.320,26.367,18.555,20.020
1586550471.066,91.797,32.715,26.855,54.199,-8.789
1586550471.070,18.555,33.203,27.344,36.621,18.066
1586550471.074,-32.227,32.227,25.879,4.883,66.895
1586550471.078,12.695,32.715,26.367,20.996,65.430
1586550471.082,89.355,32.715,28.320,59.082,44.922
1586550471.086,53.223,32.715,25.879,43.457,4.883
1586550471.090,-35.156,34.180,24.414,-3.906,-2.930
1586550471.094,1.953,34.668,22.949,-5.859,47.363
1586550471.097,86.426,32.715,20.020,23.926,43.945
1586550471.101,89.844,32.227,24.414,37.109,8.301
1586550471.105,-4.395,31.738,24.414,1.465,13.184
1586550471.109,-22.461,28.809,20.508,-9.277,-38.086
1586550471.113,62.500,29.297,20.508,22.949,-41.016
1586550471.117,107.422,32.715,20.996,49.316,51.758
1586550471.121,9.277,30.273,21.973,25.879,46.875
1586550471.125,-29.785,26.855,21.484,13.184,50.293
1586550471.129,35.156,28.809,20.020,35.645,38.086
1586550471.133,94.238,27.344,20.508,53.223,30.762
1586550471.137,25.391,25.879,21.484,37.109,21.973
1586550471.140,-30.273,26.855,22.949,11.230,17.578
1586550471.144,4.395,26.855,22.461,7.812,60.547
1586550471.148,74.219,26.855,22.461,46.387,43.945
1586550471.152,62.500,27.344,24.902,55.176,33.691
1586550471.156,-21.484,30.762,26.855,21.484,19.043
1586550471.160,-9.277,32.227,26.367,13.184,5.371
1586550471.164,82.031,31.738,24.902,36.133,32.715
1586550471.168,110.352,31.250,24.902,33.691,66.895
1586550471.172,2.930,30.273,25.391,-4.883,32.227
1586550471.176,-18.555,31.738,27.832,-1.465,-18.555
1586550471.179,58.105,33.203,28.809,31.738,10.254
1586550471.183,105.957,34.180,28.809,59.570,40.527
1586550471.187,23.438,35.156,30.273,38.086,9.277
1586550471.191,-45.410,33.691,30.762,17.090,3.906
1586550471.195,14.648,31.250,29.785,41.504,61.523
1586550471.199,103.027,29.297,27.832,64.941,65.430
1586550471.203,41.504,28.320,27.344,44.434,35.156
1586550471.207,-34.180,30.273,28.809,14.160,19.043
1586550471.211,5.371,32.715,29.785,25.391,56.152
1586550471.215,90.332,34.180,28.320,48.828,24.902
1586550471.219,87.891,32.227,25.391,33.203,17.578
1586550471.222,6.836,31.250,25.391,-10.742,61.035
1586550471.226,17.578,33.203,23.438,-15.625,18.066
1586550471.230,87.891,31.738,22.461,24.902,13.184
1586550471.234,101.074,30.762,25.879,48.340,22.949
1586550471.238,-7.324,28.320,27.344,21.484,26.367
1586550471.242,-33.203,26.367,26.367,12.207,32.715
1586550471.246,50.293,27.344,27.344,39.551,3.906
1586550471.250,101.074,26.855,24.902,65.430,52.734
1586550471.254,19.043,27.832,26.367,43.457,19.043
1586550471.258,-30.762,26.855,30.762,20.508,-29.297
1586550471.262,16.113,27.832,27.344,28.809,56.152
1586550471.265,98.145,31.738,24.414,46.875,70.312
1586550471.269,66.895,26.855,26.367,32.227,36.133
1586550471.273,-27.344,25.391,25.879,-6.836,20.508
1586550471.277,-9.277,28.809,24.414,-12.207,0.000
1586550471.281,80.078,29.297,25.879,21.973,20.020
1586550471.285,97.168,28.320,24.902,41.504,32.227
1586550471.289,-0.488,25.879,25.879,13.184,-1.465
1586550471.293,-13.184,27.344,26.855,4.883,-20.996
1586550471.297,71.777,30.762,23.438,39.062,23.438
1586550471.301,107.910,29.785,22.461,54.688,51.758
1586550471.304,14.160,27.832,24.902,20.996,4.395
1586550471.308,-28.809,26.855,24.902,11.719,1.953
1586550471.312,36.621,28.809,22.949,35.156,6.348
1586550471.316,103.516,28.809,24.414,58.594,18.066
1586550471.320,27.344,28.320,26.855,38.574,80.566
1586550471.324,-30.762,30.273,25.391,22.949,84.961
1586550471.328,29.297,33.691,23.438,40.527,68.848
1586550471.332,119.629,35.156,21.973,57.129,67.383
1586550471.336,82.031,32.227,21.973,25.879,71.289
1586550471.340,-26.367,28.809,23.438,-25.391,57.617
1586550471.344,-15.625,27.832,24.902,-12.207,39.551
1586550471.347,60.547,27.832,26.367,22.949,39.062
1586550471.351,63.965,31.250,26.367,35.645,21.484
1586550471.355,-26.367,29.785,27.344,11.719,21.484
1586550471.359,-35.156,27.832,27.344,3.418,5.859
1586550471.363,44.922,33.203,27.344,34.180,21.484
1586550471.367,90.820,33.203,27.344,58.105,48.340
1586550471.371,4.395,33.203,27.344,23.926,11.230
1586550471.375,-27.344,31.738,23.926,4.883,7.324
1586550471.379,32.715,31.250,26.367,36.133,19.531
1586550471.383,94.238,30.762,27.344,56.641,33.203
1586550471.387,43.945,29.297,24.414,31.250,20.508
1586550471.390,-20.996,29.785,25.879,6.836,8.789
1586550471.394,13.184,29.297,23.926,20.508,17.578
1586550471.398,79.102,27.832,23.926,54.688,18.066
1586550471.402,48.340,28.809,27.344,51.758,0.000
1586550471.406,-39.062,30.273,24.902,7.812,-9.766
1586550471.410,-23.438,26.855,25.391,1.465,20.020
1586550471.414,59.082,27.344,27.344,33.203,44.434
1586550471.418,91.309,31.250,27.344,45.898,24.414
1586550471.422,0.977,34.180,30.273,15.137,28.809
1586550471.426,-28.320,34.180,28.320,1.953,54.199
1586550471.429,53.711,31.250,27.832,33.203,59.082
1586550471.433,109.863,30.762,30.273,62.012,54.199
1586550471.437,24.414,33.691,30.273,31.738,-26.855
1586550471.441,-26.855,37.109,31.250,10.742,-63.965
1586550471.445,31.738,35.645,30.762,39.551,-9.766
1586550471.449,88.379,33.691,28.809,64.453,-14.160
1586550471.453,39.062,34.668,27.832,44.434,-42.969
1586550471.457,-31.250,32.227,29.297,15.625,-6.348
1586550471.461,11.719,28.809,31.738,29.785,30.762
1586550471.465,117.188,31.250,29.297,50.781,43.457
1586550471.469,98.145,33.203,26.367,35.645,70.312
1586550471.472,-17.578,29.785,27.344,-3.906,25.879
1586550471.476,-16.113,27.832,26.367,2.930,9.277
1586550471.480,61.523,28.809,25.391,45.898,-44.434
1586550471.484,84.473,27.832,28.320,51.758,-14.648
1586550471.488,-2.441,29.297,29.297,11.719,-20.508
1586550471.492,-28.320,31.250,27.344,3.906,-31.250
1586550471.496,39.062,26.367,26.367,29.297,75.684
1586550471.500,103.027,26.367,25.879,43.457,44.922
1586550471.504,30.762,28.809,30.273,18.066,-13.672
1586550471.508,-41.992,25.391,31.250,5.371,12.207
1586550471.512,2.930,21.484,27.344,30.273,45.898
1586550471.515,83.496,23.926,26.367,62.500,94.238
1586550471.519,46.387,28.320,28.320,38.574,65.918
1586550471.523,-30.762,28.809,29.297,-5.859,-19.531
1586550471.527,-5.859,29.297,28.320,2.441,20.508
1586550471.531,74.707,27.832,26.855,29.785,92.773
1586550471.535,85.449,27.832,31.250,45.410,56.152
1586550471.539,-3.418,27.832,35.645,23.438,57.617
1586550471.543,-5.371,28.809,30.762,10.254,22.949
1586550471.547,71.289,27.832,28.320,35.645,34.668
1586550471.551,96.191,24.414,30.273,55.664,67.871
1586550471.554,-2.930,25.391,31.738,27.344,23.438
1586550471.558,-46.387,28.809,30.273,12.695,3.906
1586550471.562,21.973,29.785,25.391,27.832,88.867
1586550471.566,110.352,29.297,24.414,55.176,123.535
1586550471.570,44.922,32.227,24.414,37.109,51.758
1586550471.574,-18.066,34.668,24.414,0.000,34.668
1586550471.578,25.879,36.133,24.414,4.883,49.805
1586550471.582,96.191,31.250,23.926,42.969,53.711
1586550471.586,60.547,27.832,24.902,28.809,75.195
1586550471.590,-43.457,28.320,25.391,-15.137,23.926
1586550471.594,-15.137,27.832,28.320,6.348,-22.461
1586550471.597,70.312,26.855,31.250,41.504,-9.766
1586550471.601,83.496,29.297,30.273,50.293,33.203
1586550471.605,-7.812,29.785,29.785,17.578,57.129
1586550471.609,-21.973,25.879,29.785,2.930,26.855
1586550471.613,61.523,29.297,26.855,36.621,67.383
1586550471.617,122.070,32.227,23.926,64.941,23.438
1586550471.621,21.973,30.762,25.879,43.945,-9.277
1586550471.625,-45.410,30.762,25.879,19.043,55.176
1586550471.629,24.414,31.250,24.414,39.062,61.035
1586550471.633,105.469,32.227,24.414,56.152,9.766
1586550471.637,57.129,32.715,22.461,14.648,11.719
1586550471.640,-24.902,32.227,21.484,-8.789,27.344
1586550471.644,13.672,31.738,21.973,10.254,-4.883
1586550471.648,104.004,30.273,21.484,25.391,3.906
1586550471.652,81.543,30.273,22.461,25.879,16.602
1586550471.656,-26.367,31.738,25.391,5.371,-15.625
1586550471.660,-18.066,32.227,26.367,11.230,4.883
1586550471.664,69.336,28.809,25.879,47.363,72.266
1586550471.668,74.707,28.320,24.414,58.105,54.199
1586550471.672,-14.160,33.203,25.879,27.832,10.742
1586550471.676,-22.461,31.250,25.879,19.043,-13.184
1586550471.679,53.711,28.320,25.391,47.363,-22.461
1586550471.683,121.582,26.855,30.273,73.730,21.973
1586550471.687,30.273,28.320,32.715,43.945,44.922
1586550471.691,-34.180,27.832,31.250,20.508,-23.438
1586550471.695,31.738,27.832,30.273,33.691,-31.738
1586550471.699,116.699,30.273,29.297,51.758,43.457
1586550471.703,69.824,31.738,28.320,35.645,27.832
1586550471.707,-10.742,29.297,25.391,12.207,-5.859
1586550471.711,20.020,30.762,27.344,19.043,19.531
1586550471.715,79.102,34.180,31.250,40.039,65.918
1586550471.719,60.547,33.203,25.879,35.156,-7.324
1586550471.722,-37.109,35.645,23.926,3.418,-13.184
1586550471.726,-40.527,37.109,23.926,2.930,59.082
1586550471.730,44.922,34.668,23.926,32.227,41.504
1586550471.734,91.309,33.691,24.414,42.480,36.621
1586550471.738,2.441,33.691,24.414,11.719,76.172
1586550471.742,-17.578,32.715,25.391,4.883,79.590
1586550471.746,66.406,32.227,25.879,34.668,41.016
1586550471.750,115.234,31.738,25.879,60.059,32.715
1586550471.754,35.156,28.320,27.344,35.645,18.066
1586550471.758,-32.715,23.926,28.809,21.484,10.254
1586550471.762,10.254,25.879,26.855,40.527,25.391
1586550471.765,96.680,28.320,24.902,56.152,42.480
1586550471.769,73.242,26.855,25.391,37.109,9.277
1586550471.773,-9.277,28.809,24.902,2.441,-42.480
1586550471.777,0.000,27.344,26.367,3.906,-17.578
1586550471.781,66.406,25.391,25.391,48.340,9.277
1586550471.785,78.613,24.902,27.344,63.477,-21.484
1586550471.789,-6.836,27.344,28.320,13.672,-5.371
1586550471.793,-6.836,26.367,21.484,-5.371,25.391
1586550471.797,64.453,21.973,23.926,22.461,25.879
1586550471.801,86.426,26.367,25.879,49.805,23.438
1586550471.804,12.207,31.250,20.996,28.809,-4.883
1586550471.808,-40.527,25.879,28.320,10.254,2.930
1586550471.812,-1.465,20.020,33.691,21.973,18.555
1586550471.816,82.520,23.438,29.297,34.668,39.551
1586550471.820,35.156,26.855,26.855,5.371,15.625
1586550471.824,-29.297,26.367,29.785,-10.254,64.453
1586550471.828,3.418,27.344,30.273,10.254,108.398
1586550471.832,75.684,30.762,26.367,35.156,73.242
1586550471.836,60.059,30.762,24.414,30.273,96.680
1586550471.840,-18.555,29.785,24.414,-0.977,50.293
1586550471.844,-0.488,30.762,23.438,-0.977,55.664
1586550471.847,80.566,28.320,23.438,40.039,70.312
1586550471.851,93.750,26.855,24.414,53.711,47.852
1586550471.855,-0.977,25.391,25.391,17.090,74.219
1586550471.859,-7.812,26.855,27.344,20.020,-2.441
1586550471.863,51.270,29.785,26.367,40.039,-15.625
1586550471.867,99.121,30.762,26.367,54.199,61.035
1586550471.871,21.973,29.297,28.320,31.250,55.664
1586550471.875,-32.227,29.297,26.855,4.883,17.578
1586550471.879,30.273,29.297,25.391,22.461,49.316
1586550471.883,106.934,29.297,26.855,57.617,30.273
1586550471.887,53.711,29.785,30.273,41.992,66.895
1586550471.890,-33.691,28.320,29.785,6.836,24.902
1586550471.894,-0.977,29.297,29.297,26.367,-50.293
1586550471.898,84.473,28.320,33.691,75.195,-28.320
1586550471.902,69.336,28.809,33.691,67.871,-14.648
1586550471.906,-25.391,29.785,32.227,19.531,-44.434
1586550471.910,-7.324,31.250,28.320,7.324,-47.852
1586550471.914,86.426,35.645,24.414,26.855,-5.371
1586550471.918,111.328,36.133,25.391,43.457,33.691
1586550471.922,-1.465,33.203,24.902,8.789,67.871
1586550471.926,-27.832,35.645,21.484,-13.184,17.090
1586550471.929,41.504,33.203,24.902,20.020,66.406
1586550471.933,83.008,27.832,28.320,47.852,98.145
1586550471.937,14.160,28.320,24.902,19.043,28.320
1586550471.941,-35.645,29.297,23.926,1.953,41.992
1586550471.945,6.348,29.297,26.367,23.926,31.738
1586550471.949,84.473,26.855,26.367,64.453,40.527
1586550471.953,41.504,26.367,24.902,40.527,83.008
1586550471.957,-41.992,27.344,24.902,-5.371,77.148
1586550471.961,-4.395,24.414,24.414,3.906,125.977
1586550471.965,66.406,22.949,23.926,39.551,128.418
1586550471.969,61.035,23.926,24.902,58.594,56.641
1586550471.972,-26.367,26.367,22.461,19.043,13.184
1586550471.976,-31.250,28.809,20.508,6.348,-21.484
1586550471.980,53.711,27.832,22.461,40.039,-4.883
1586550471.984,86.426,28.809,23.926,51.270,10.254
1586550471.988,3.906,34.180,23.438,16.113,-51.758
1586550471.992,-14.160,35.645,24.414,2.930,-27.832
1586550471.996,50.293,34.180,25.391,23.438,-36.133
1586550472.000,102.539,34.180,24.414,42.969,-39.551
1586550472.004,26.367,33.203,24.414,30.273,10.254
1586550472.008,-48.828,33.691,26.367,13.184,25.391
1586550472.012,-1.953,36.133,25.391,22.461,0.000
1586550472.015,74.707,33.203,24.414,40.039,28.809
1586550472.019,49.316,29.785,26.855,28.320,83.496
1586550472.023,-27.832,29.785,30.273,-2.441,11.230
1586550472.027,-14.648,28.809,27.832,-2.441,-34.180
1586550472.031,60.547,30.273,24.414,34.180,48.340
1586550472.035,75.684,28.809,24.902,40.527,45.410
1586550472.039,-8.789,28.809,27.344,13.672,46.875
1586550472.043,-24.902,30.273,27.832,16.602,47.852
1586550472.047,51.758,28.320,28.809,42.969,-0.488
1586550472.051,120.605,30.273,29.785,50.781,25.391
1586550472.054,40.039,31.738,28.320,11.230,-20.996
1586550472.058,-18.066,31.250,27.344,-5.859,-4.883
1586550472.062,26.855,29.785,25.879,24.902,43.945
1586550472.066,85.938,27.832,25.391,53.711,6.836
1586550472.070,36.621,27.832,23.438,20.508,39.062
1586550472.074,-27.344,28.809,26.855,-10.742,20.996
1586550472.078,3.906,29.297,29.297,16.602,32.715
1586550472.082,74.219,29.297,27.832,51.758,71.289
1586550472.086,59.570,26.855,28.320,24.902,-12.695
1586550472.090,-31.738,27.344,24.902,-34.668,-28.809
1586550472.094,-18.066,26.855,24.902,-29.297,-27.832
1586550472.097,71.289,25.879,27.344,18.066,6.836
1586550472.101,94.238,25.879,28.320,41.016,72.266
1586550472.105,-9.766,24.902,28.320,17.578,11.230
1586550472.109,-40.527,22.949,26.367,17.090,-34.668
1586550472.113,41.016,25.879,23.926,39.062,13.672
1586550472.117,109.375,27.344,22.949,50.293,30.762
1586550472.121,42.480,26.855,23.438,19.043,36.621
1586550472.125,-8.301,32.227,24.902,13.184,45.410
1586550472.129,38.574,33.691,24.902,30.762,54.688
1586550472.133,104.492,32.715,23.926,48.828,35.156
1586550472.137,55.176,32.715,26.855,33.203,-2.441
1586550472.140,-28.320,30.273,27.344,0.488,65.918
1586550472.144,15.625,29.297,23.438,9.766,72.266
1586550472.148,92.285,29.785,23.926,40.527,54.199
1586550472.152,72.266,30.762,24.414,45.898,67.871
1586550472.156,-28.809,30.273,26.367,24.902,37.109
1586550472.160,-38.086,24.902,27.344,13.672,11.719
1586550472.164,55.664,25.879,24.414,24.902,53.223
1586550472.168,84.961,28.809,23.926,44.434,30.762
1586550472.172,-14.160,28.809,23.926,13.184,54.199
1586550472.176,-42.969,29.297,24.414,-4.883,87.402
1586550472.179,38.086,30.762,24.902,22.949,55.664
1586550472.183,112.305,31.250,24.902,41.504,28.320
1586550472.187,32.715,30.273,28.320,10.254,55.664
1586550472.191,-42.480,30.273,28.320,-13.672,57.129
1586550472.195,-2.441,28.320,27.832,9.277,4.395
1586550472.199,79.102,26.367,30.762,42.969,30.762
1586550472.203,43.457,28.809,29.297,30.273,65.918
1586550472.207,-39.551,32.227,25.879,0.977,23.926
1586550472.211,-11.230,30.273,26.855,6.348,33.691
1586550472.215,85.938,27.832,27.344,45.410,70.312
1586550472.219,105.957,29.297,27.344,52.734,43.945
1586550472.222,5.371,32.715,27.832,9.277,33.691
1586550472.226,-24.902,31.738,27.832,1.465,72.266
1586550472.230,45.410,30.762,26.855,32.227,60.547
1586550472.234,96.680,30.762,24.902,37.598,14.160
1586550472.238,18.066,31.738,25.879,4.395,-4.883
1586550472.242,-38.574,31.738,27.832,0.488,5.859
1586550472.246,0.000,28.809,27.832,33.691,71.777
1586550472.250,70.801,29.785,25.391,69.824,23.438
1586550472.254,21.484,30.762,25.391,46.875,-28.320
1586550472.258,-21.484,32.227,25.391,0.000,27.344
1586550472.262,23.438,32.715,24.902,6.348,4.395
1586550472.265,95.703,35.645,26.367,44.434,15.625
1586550472.269,73.242,35.156,24.414,38.574,9.766
1586550472.273,-14.160,34.668,24.902,2.930,-33.691
1586550472.277,-2.930,35.645,26.367,12.695,18.066
1586550472.281,60.059,30.762,27.832,51.758,62.012
1586550472.285,78.125,30.762,27.344,47.363,9.277
1586550472.289,2.441,36.133,25.391,7.812,10.742
1586550472.293,-20.508,33.203,25.879,11.230,19.043
1586550472.297,47.363,28.809,22.949,37.109,21.973
1586550472.301,92.773,31.738,23.438,54.199,87.891
1586550472.304,4.395,33.691,23.926,28.320,30.273
1586550472.308,-51.270,28.809,22.949,6.348,-33.203
1586550472.312,4.883,30.762,20.996,24.902,1.465
1586550472.316,96.680,35.645,22.461,58.594,22.949
1586550472.320,53.223,33.691,23.926,32.715,48.828
1586550472.324,-31.250,32.715,20.020,-11.719,43.457
1586550472.328,0.977,33.203,20.996,7.812,55.664
1586550472.332,92.285,31.738,24.902,43.457,41.504
1586550472.336,83.984,30.273,23.926,34.668,-32.227
1586550472.340,-16.602,30.273,24.902,-4.883,-20.020
1586550472.344,-10.254,28.809,27.344,0.977,38.574
1586550472.347,59.082,27.344,26.367,41.016,65.918
1586550472.351,75.684,27.344,26.367,57.617,54.688
1586550472.355,-10.254,24.414,26.855,27.832,50.293
1586550472.359,-32.227,22.461,28.320,13.672,-3.906
1586550472.363,37.109,24.902,27.832,28.809,-30.762
1586550472.367,98.633,25.879,29.297,48.828,51.758
1586550472.371,20.508,25.391,29.785,18.066,16.602
1586550472.375,-35.645,25.879,26.855,-5.859,-21.484
1586550472.379,13.184,25.391,24.902,23.438,59.570
1586550472.383,87.402,23.926,27.344,55.664,73.242
1586550472.387,47.852,24.902,31.250,34.180,13.184
1586550472.390,-34.668,27.344,31.738,4.883,18.066
1586550472.394,-2.441,27.832,31.738,20.508,22.949
1586550472.398,84.473,27.344,32.715,56.152,20.996
1586550472.402,72.266,25.391,33.203,62.012,16.602
1586550472.406,-27.344,25.879,28.809,18.555,-31.738
1586550472.410,-15.625,27.832,24.902,-0.488,4.395
1586550472.414,62.988,28.320,26.855,31.738,61.523
1586550472.418,94.727,30.762,27.344,46.875,83.496
1586550472.422,17.578,28.809,26.367,8.789,-11.719
1586550472.426,-11.719,25.879,28.320,-4.395,-43.945
1586550472.429,45.410,29.297,27.344,21.973,4.883
1586550472.433,96.191,30.273,27.344,54.199,49.805
1586550472.437,36.133,34.180,30.273,34.668,89.844
1586550472.441,-11.230,35.156,27.832,0.977,63.477
1586550472.445,27.344,31.250,26.367,16.602,-29.785
1586550472.449,89.355,30.762,28.809,53.711,-52.246
1586550472.453,40.039,28.320,32.715,50.781,16.602
1586550472.457,-51.758,30.762,32.227,13.184,16.602
1586550472.461,-17.578,34.668,31.738,12.207,-45.898
1586550472.465,71.289,34.668,32.715,44.922,17.578
1586550472.469,93.750,35.645,28.809,45.898,53.711
1586550472.472,12.695,35.645,26.367,9.277,21.484
1586550472.476,-8.789,31.738,28.320,11.719,39.551
1586550472.480,47.363,28.809,27.832,41.992,7.812
1586550472.484,88.379,30.762,26.855,69.824,30.762
1586550472.488,-1.465,28.809,26.855,38.574,27.832
1586550472.492,-31.738,27.344,27.832,14.648,31.738
1586550472.496,47.852,30.273,29.297,35.645,49.316
1586550472.500,115.723,27.832,27.832,40.527,59.570
1586550472.504,62.988,28.809,26.855,13.184,57.129
1586550472.508,-7.324,29.785,29.297,3.418,-8.301
1586550472.512,7.812,25.879,27.344,26.367,-17.090
1586550472.515,70.312,25.391,24.902,50.781,5.371
1586550472.519,61.035,27.832,27.344,45.898,63.477
1586550472.523,-25.879,27.344,28.320,16.113,13.672
1586550472.527,-15.625,26.367,29.785,14.648,-32.715
1586550472.531,62.500,26.855,29.297,47.852,-6.836
1586550472.535,87.891,27.832,22.949,53.223,-14.648
1586550472.539,13.184,29.297,24.414,23.438,-48.340
1586550472.543,-13.184,29.785,23.926,16.113,-51.270
1586550472.547,44.434,26.855,23.438,29.785,13.672
1586550472.551,94.238,24.902,26.367,47.363,74.707
1586550472.554,12.695,27.344,28.320,18.555,80.566
1586550472.558,-28.320,28.320,28.320,-10.742,30.273
1586550472.562,38.574,26.855,27.832,4.395,27.344
1586550472.566,100.098,26.855,28.320,31.250,77.148
1586550472.570,23.926,28.320,26.367,14.160,56.641
1586550472.574,-52.734,25.879,27.344,-11.719,-11.230
1586550472.578,-11.230,28.809,29.785,-1.953,-15.137
1586550472.582,75.195,32.227,29.297,32.715,57.129
1586550472.586,73.730,34.180,30.762,34.668,44.922
1586550472.590,-21.973,34.668,30.762,3.418,72.754
1586550472.594,-8.301,30.762,28.809,11.230,54.199
1586550472.597,74.707,31.738,31.738,46.387,13.184
1586550472.601,99.609,33.203,30.762,53.223,54.199
1586550472.605,5.859,31.250,27.344,20.996,1.953
1586550472.609,-26.855,29.785,27.344,5.859,47.363
1586550472.613,33.691,31.250,26.855,14.648,69.336
1586550472.617,84.473,29.785,27.344,40.527,20.020
1586550472.621,15.625,28.320,26.855,37.109,-3.906
1586550472.625,-39.551,29.297,27.344,11.719,25.391
1586550472.629,20.020,28.320,29.297,23.926,63.965
1586550472.633,101.562,28.320,26.855,53.711,70.801
1586550472.637,72.754,30.273,25.391,28.809,73.242
1586550472.640,-9.277,31.738,27.344,-2.930,20.996
1586550472.644,-4.395,31.250,27.832,7.324,0.488
1586550472.648,67.383,31.738,26.367,38.086,94.727
1586550472.652,73.730,32.715,24.414,43.945,99.609
1586550472.656,-25.879,32.227,27.832,15.625,6.348
1586550472.660,-26.855,33.203,27.344,10.742,8.789
1586550472.664,61.035,33.691,25.391,26.367,5.859
1586550472.668,86.914,33.203,28.809,45.898,15.625
1586550472.672,-0.488,34.180,26.367,17.090,24.414
1586550472.676,-36.621,33.691,23.438,-2.930,16.113
1586550472.679,14.160,30.273,24.414,22.461,23.926
1586550472.683,86.914,28.809,24.414,41.016,62.012
1586550472.687,32.227,29.785,21.973,17.090,53.223
1586550472.691,-35.645,31.250,18.555,1.465,-9.277
1586550472.695,6.836,32.227,18.066,35.645,10.742
1586550472.699,90.332,32.715,18.555,55.664,101.074
1586550472.703,62.988,34.180,19.043,26.855,68.848
1586550472.707,-20.996,30.273,20.996,1.465,-7.812
1586550472.711,3.418,30.273,23.926,11.719,36.621
1586550472.715,76.172,32.715,25.391,38.574,78.613
1586550472.719,80.078,31.250,27.832,45.898,71.777
1586550472.722,-15.625,28.809,28.809,13.184,14.648
1586550472.726,-27.832,26.367,27.832,7.324,-40.039
1586550472.730,44.922,27.344,25.879,44.922,10.254
1586550472.734,90.820,29.785,23.926,61.523,55.176
1586550472.738,16.113,34.180,23.926,26.855,28.320
1586550472.742,-19.043,33.203,22.461,3.906,6.348
1586550472.746,43.945,30.762,20.996,22.461,-26.367
1586550472.750,119.141,32.227,23.438,44.922,-8.789
1586550472.754,53.711,32.715,25.879,22.461,25.391
1586550472.758,-46.387,33.691,25.879,-9.766,80.078
1586550472.762,-9.277,31.738,28.809,0.977,50.293
1586550472.765,72.754,29.785,30.273,36.133,6.348
1586550472.769,57.129,31.250,27.832,36.621,-35.156
1586550472.773,-22.949,31.250,31.250,14.648,14.160
1586550472.777,-17.578,31.738,32.227,20.996,29.297
1586550472.781,67.383,31.250,26.855,42.969,-2.930
1586550472.785,105.469,27.344,24.414,48.828,25.879
1586550472.789,11.719,31.738,27.344,18.066,61.523
1586550472.793,-19.531,31.738,26.855,-5.859,35.645
1586550472.797,39.062,25.879,26.855,11.230,31.250
1586550472.801,83.496,24.902,31.250,49.805,54.688
1586550472.804,14.160,22.461,28.809,27.344,16.113
1586550472.808,-25.879,21.484,24.414,-0.977,-15.137
1586550472.812,45.410,26.367,23.438,17.090,-26.367
1586550472.816,117.188,28.809,23.438,46.875,30.762
1586550472.820,44.922,28.809,26.367,34.180,51.758
1586550472.824,-43.457,29.297,27.832,-2.930,23.438
1586550472.828,-16.113,26.855,26.367,8.789,70.801
1586550472.832,58.105,26.367,27.832,49.805,52.246
1586550472.836,67.383,27.832,27.832,56.641,56.152
1586550472.840,-9.766,30.762,26.855,17.578,8.301
1586550472.844,-7.812,31.250,29.785,6.836,-34.668
1586550472.847,77.148,32.715,26.367,23.926,5.859
1586550472.851,119.141,35.156,21.484,41.016,39.062
1586550472.855,7.812,30.273,25.879,21.484,49.805
1586550472.859,-49.805,26.855,30.762,-0.977,-14.648
1586550472.863,19.043,26.367,30.273,16.602,21.484
1586550472.867,91.309,29.785,27.832,44.922,60.059
1586550472.871,28.320,30.273,30.762,12.695,20.996
1586550472.875,-38.086,31.250,31.250,-19.531,19.531
1586550472.879,13.672,33.203,29.297,-9.277,29.785
1586550472.883,89.355,28.809,29.785,28.809,-3.906
1586550472.887,48.828,30.273,28.320,26.855,-27.344
1586550472.890,-47.363,32.227,30.273,-10.254,29.785
1586550472.894,-17.090,33.691,31.250,-6.348,24.414
1586550472.898,77.148,35.156,32.715,24.414,-32.715
1586550472.902,65.918,34.668,33.203,28.320,12.695
1586550472.906,-32.715,35.156,30.273,-7.812,34.668
1586550472.910,-32.227,37.109,32.715,-18.555,9.766
1586550472.914,30.762,37.598,35.645,1.465,-2.441
1586550472.918,63.965,34.668,31.738,36.621,30.273
1586550472.922,-20.508,34.180,29.297,13.672,19.531
1586550472.926,-50.293,37.109,31.738,-16.602,-11.230
1586550472.929,20.996,37.598,28.320,2.930,57.617
1586550472.933,85.938,33.203,25.879,26.367,61.035
1586550472.937,15.137,28.809,31.250,15.137,36.133
1586550472.941,-59.570,30.762,27.832,-9.766,32.715
1586550472.945,-17.090,29.785,27.832,0.000,30.273
1586550472.949,75.195,31.250,29.785,39.551,73.730
1586550472.953,64.941,35.645,31.738,45.898,59.570
1586550472.957,-24.414,31.738,34.180,15.625,55.664
1586550472.961,-10.254,29.785,29.297,18.555,32.715
1586550472.965,78.613,30.273,27.344,40.527,31.738
1586550472.969,97.168,29.785,29.785,41.992,36.621
1586550472.972,4.883,31.738,29.297,11.719,30.762
1586550472.976,-0.977,31.738,29.297,14.160,-1.465
1586550472.980,75.195,33.203,26.855,48.340,32.715
1586550472.984,108.398,33.691,28.809,67.383,93.750
1586550472.988,18.555,31.738,30.273,36.621,72.754
1586550472.992,-23.438,30.762,25.879,12.695,17.578
1586550472.996,41.016,28.809,26.367,30.273,-26.367
1586550473.000,103.516,27.832,30.273,50.781,1.465
1586550473.004,51.758,27.832,31.738,33.203,9.766
1586550473.008,-16.602,27.344,30.273,3.418,0.488
1586550473.012,22.461,26.855,27.344,15.137,53.711
1586550473.015,86.426,29.297,28.809,49.316,87.402
1586550473.019,65.918,29.297,31.738,58.105,52.246
1586550473.023,-16.602,27.344,29.785,34.668,55.176
1586550473.027,-14.648,26.367,26.367,27.344,42.480
1586550473.031,62.012,25.879,26.367,42.480,3.418
1586550473.035,92.773,29.297,26.367,59.570,53.223
1586550473.039,5.371,30.273,27.344,33.203,91.797
1586550473.043,-30.273,27.832,28.320,18.555,13.184
1586550473.047,54.688,28.809,28.320,46.875,26.367
1586550473.051,130.371,31.250,26.855,72.266,70.801
1586550473.054,30.762,32.227,26.855,42.480,28.809
1586550473.058,-33.203,29.785,28.809,31.738,4.395
1586550473.062,29.785,30.273,26.855,39.062,-2.441
1586550473.066,113.770,30.762,24.902,46.875,20.508
1586550473.070,61.035,28.320,25.879,44.922,22.461
1586550473.074,-31.250,29.297,26.855,26.855,29.297
1586550473.078,14.160,33.203,26.855,20.020,67.383
1586550473.082,97.656,33.203,22.949,29.297,80.566
1586550473.086,100.098,32.715,22.949,33.691,88.379
1586550473.090,11.719,30.273,25.391,1.953,33.203
1586550473.094,3.418,33.691,25.391,-3.906,31.738
1586550473.097,78.613,31.738,25.391,33.203,78.125
1586550473.101,98.145,28.320,24.414,51.758,21.484
1586550473.105,-3.906,29.297,26.855,22.461,35.156
1586550473.109,-34.180,28.809,27.832,2.441,29.785
1586550473.113,31.250,31.250,25.879,17.578,-27.344
1586550473.117,88.867,32.715,27.832,54.688,13.184
1586550473.121,19.043,33.691,25.879,32.227,49.316
1586550473.125,-37.109,33.203,23.438,3.418,58.594
1586550473.129,11.230,30.273,24.414,15.625,13.672
1586550473.133,88.867,29.297,25.391,41.016,40.039
1586550473.137,55.664,28.320,27.344,34.668,45.898
1586550473.140,-35.156,29.297,26.855,-1.953,12.207
1586550473.144,-15.625,29.785,25.391,-3.906,14.648
1586550473.148,73.242,28.320,26.855,30.273,0.977
1586550473.152,79.590,28.809,24.414,40.527,-3.418
1586550473.156,-20.020,28.320,26.367,16.602,-2.930
1586550473.160,-24.414,27.344,30.762,10.254,29.297
1586550473.164,55.176,27.344,29.785,26.855,54.199
1586550473.168,87.891,27.832,28.320,48.340,47.363
1586550473.172,6.348,27.832,27.344,27.344,51.270
1586550473.176,-25.879,27.344,27.832,13.184,17.578
1586550473.179,38.086,27.344,27.344,39.551,19.531
1586550473.183,95.703,28.809,24.414,55.176,62.500
1586550473.187,34.668,31.738,27.344,24.414,63.965
1586550473.191,-34.180,31.738,29.297,0.000,85.938
1586550473.195,-2.930,27.344,26.855,16.113,66.895
1586550473.199,74.707,25.879,27.344,46.875,3.418
1586550473.203,62.012,28.320,27.344,35.156,-35.156
1586550473.207,-20.020,30.762,24.414,4.395,-29.785
1586550473.211,-10.254,31.250,23.438,12.695,6.348
1586550473.215,79.590,31.250,26.855,43.945,25.879
1586550473.219,97.168,31.738,25.391,49.316,55.176
1586550473.222,-14.160,31.738,24.902,7.812,66.895
1586550473.226,-37.109,30.762,26.367,1.465,8.789
1586550473.230,44.434,29.297,23.926,27.832,3.418
1586550473.234,111.328,27.832,23.438,53.223,47.852
1586550473.238,28.809,30.273,25.391,22.949,18.066
1586550473.242,-27.344,32.715,24.902,-10.742,-23.438
1586550473.246,28.809,33.203,22.461,12.207,16.113
1586550473.250,110.840,32.227,21.973,56.152,70.312
1586550473.254,58.105,32.227,25.879,49.316,29.785
1586550473.258,-26.855,31.738,26.855,10.742,36.133
1586550473.262,2.441,30.273,23.926,6.836,38.574
1586550473.265,73.242,28.320,24.902,36.621,8.789
1586550473.269,63.477,23.926,25.391,53.711,-21.484
1586550473.273,-32.227,26.367,22.949,32.715,-9.766
1586550473.277,-27.344,29.297,24.902,22.949,9.766
1586550473.281,53.711,30.762,26.367,32.715,16.602
1586550473.285,90.820,33.203,25.879,38.574,21.484
1586550473.289,11.719,35.156,26.855,5.859,37.598
1586550473.293,-19.531,36.133,22.949,-10.254,20.996
1586550473.297,42.969,33.691,20.508,22.949,-31.738
1586550473.301,105.957,32.227,23.926,61.523,-0.488
1586550473.304,31.250,31.738,25.391,37.109,-25.391
1586550473.308,-41.016,32.227,26.855,4.395,-8.301
1586550473.312,14.648,34.180,25.391,20.996,9.277
1586550473.316,97.168,33.691,25.391,56.152,-3.418
1586550473.320,62.988,32.715,25.879,36.133,3.906
1586550473.324,-18.066,32.227,26.855,6.348,16.602
1586550473.328,-7.812,32.715,30.273,20.020,25.879
1586550473.332,62.012,30.273,29.297,51.758,24.414
1586550473.336,64.941,27.344,28.320,56.152,59.082
1586550473.340,-0.488,31.250,25.879,7.812,30.762
1586550473.344,18.555,30.762,24.902,6.836,-14.160
1586550473.347,73.242,26.367,26.367,50.781,15.137
1586550473.351,83.984,23.926,27.832,59.570,28.809
1586550473.355,-6.348,22.949,29.297,11.719,0.977
1586550473.359,-47.852,27.344,27.832,-19.531,10.742
1586550473.363,14.648,27.344,27.344,-6.348,0.000
1586550473.367,88.379,23.926,27.832,26.855,14.648
1586550473.371,23.438,24.414,27.344,16.113,48.340
1586550473.375,-31.738,28.809,26.367,0.977,34.180
1586550473.379,24.902,26.855,27.832,20.020,9.766
1586550473.383,96.191,23.926,29.297,54.199,-16.113
1586550473.387,63.965,28.320,27.344,42.969,10.742
1586550473.390,-36.133,28.320,26.367,-3.418,6.348
1586550473.394,-32.227,29.297,27.832,3.906,3.906
1586550473.398,65.430,31.738,28.320,38.574,19.043
1586550473.402,92.285,30.762,28.809,50.781,3.418
1586550473.406,2.930,30.762,27.832,18.555,32.715
1586550473.410,-0.977,31.250,25.879,8.301,25.391
1586550473.414,58.594,30.273,25.391,35.645,29.297
1586550473.418,104.980,32.227,23.438,50.293,38.086
1586550473.422,29.297,34.180,24.902,8.789,10.742
1586550473.426,-31.738,31.738,24.414,-17.578,29.785
1586550473.429,29.297,31.738,24.902,9.277,77.637
1586550473.433,98.633,34.668,28.809,41.504,61.523
1586550473.437,30.273,30.273,31.250,19.531,97.656
1586550473.441,-41.016,26.367,28.320,-18.555,79.590
1586550473.445,-1.465,28.809,27.344,-7.324,20.508
1586550473.449,74.707,29.785,28.809,27.832,44.434
1586550473.453,62.988,27.344,28.809,30.273,58.594
1586550473.457,-20.996,26.855,26.367,3.418,4.883
1586550473.461,-10.742,28.320,24.414,3.906,-18.066
1586550473.465,66.895,28.320,29.785,37.109,30.273
1586550473.469,94.238,27.832,30.762,61.035,14.160
1586550473.472,20.996,29.785,27.344,26.855,26.367
1586550473.476,-0.977,29.785,30.762,10.254,11.719
1586550473.480,46.387,28.809,36.621,31.250,16.113
1586550473.484,88.867,29.785,34.668,46.875,78.613
1586550473.488,5.371,30.273,30.273,19.043,88.867
1586550473.492,-52.734,29.785,24.902,-3.906,50.781
1586550473.496,14.160,29.785,23.438,18.066,12.695
1586550473.500,91.309,30.273,26.367,44.922,-15.137
1586550473.504,40.527,32.227,28.809,30.273,67.871
1586550473.508,-40.039,33.691,28.320,-7.324,125.488
1586550473.512,-4.883,32.715,26.367,-0.488,82.520
1586550473.515,88.379,34.668,25.879,45.410,88.379
1586550473.519,77.148,34.668,26.367,49.316,97.656
1586550473.523,-19.531,34.180,26.855,4.395,106.445
1586550473.527,-11.719,32.715,26.367,0.488,113.770
1586550473.531,57.129,31.738,25.879,34.668,71.289
1586550473.535,92.285,32.715,27.344,58.105,69.336
1586550473.539,11.719,30.273,27.344,21.973,54.199
1586550473.543,-20.996,30.273,23.926,0.977,22.949
1586550473.547,47.852,31.738,22.461,31.738,27.344
1586550473.551,121.094,31.250,23.926,69.336,48.340
1586550473.554,49.805,30.762,24.902,55.664,33.691
1586550473.558,-34.180,30.762,24.414,19.531,41.504
1586550473.562,11.230,30.762,20.508,5.859,29.785
1586550473.566,82.520,30.762,21.484,31.250,48.828
1586550473.570,39.551,32.715,22.949,26.855,56.641
1586550473.574,-56.641,31.250,21.973,-9.766,18.066
1586550473.578,-36.621,29.785,22.949,-6.836,41.016
1586550473.582,64.941,31.738,22.949,26.855,31.250
1586550473.586,92.285,32.715,21.484,34.180,30.762
1586550473.590,5.371,34.668,20.508,4.883,32.715
1586550473.594,-4.883,38.574,20.508,13.672,-28.320
1586550473.597,62.012,37.109,20.996,46.387,-32.227
1586550473.601,93.750,31.250,19.531,50.293,-3.418
1586550473.605,0.000,29.785,20.508,11.230,-9.277
1586550473.609,-53.223,33.691,20.996,-10.254,-33.691
1586550473.613,10.742,30.273,21.484,8.301,-6.836
1586550473.617,84.473,28.320,22.949,43.945,65.430
1586550473.621,41.992,33.691,25.391,34.668,40.039
1586550473.625,-15.137,28.809,26.367,11.230,8.301
1586550473.629,24.414,28.809,26.367,17.578,27.832
1586550473.633,95.215,30.762,25.391,39.062,57.617
1586550473.637,54.199,27.832,25.879,29.785,85.938
1586550473.640,-27.832,28.320,24.414,-13.184,33.691
1586550473.644,-5.371,27.344,24.414,-6.836,-37.109
1586550473.648,45.410,24.414,27.832,34.668,21.484
1586550473.652,54.688,25.879,27.344,44.434,54.199
1586550473.656,-26.855,28.809,23.926,8.789,3.418
1586550473.660,-53.223,30.273,22.949,-17.578,53.711
1586550473.664,29.297,32.715,22.949,5.371,67.871
1586550473.668,96.191,33.691,22.461,46.387,78.125
1586550473.672,15.625,32.715,22.949,14.648,53.223
1586550473.676,-31.738,33.691,22.461,-13.184,6.348
1586550473.679,36.621,34.180,23.926,11.719,20.020
1586550473.683,105.957,29.297,24.414,48.340,0.488
1586550473.687,39.551,27.832,24.414,32.227,-37.109
1586550473.691,-47.363,27.344,23.926,-9.277,-41.992
1586550473.695,-12.207,27.832,20.996,-4.395,13.184
1586550473.699,80.566,27.832,20.996,35.156,78.613
1586550473.703,78.125,26.367,25.391,42.480,62.012
1586550473.707,-21.973,25.391,27.344,5.859,103.027
1586550473.711,-26.367,26.367,26.367,11.719,72.266
1586550473.715,65.430,28.320,26.855,52.734,20.020
1586550473.719,98.145,31.738,21.484,44.922,40.527
1586550473.722,-8.301,33.691,19.531,-7.324,12.207
1586550473.726,-34.668,29.785,22.461,-11.230,14.160
1586550473.730,50.781,29.297,23.926,34.180,72.754
1586550473.734,114.258,31.738,22.949,65.918,83.496
1586550473.738,26.855,34.180,18.555,36.133,32.715
1586550473.742,-34.180,33.203,21.973,1.953,12.695
1586550473.746,21.973,27.832,26.367,14.160,35.156
1586550473.750,89.355,27.344,24.902,47.363,57.617
1586550473.754,51.270,30.273,21.973,34.668,42.969
1586550473.758,-32.715,27.832,24.902,4.395,-10.254
1586550473.762,-1.465,27.832,25.879,14.160,5.859
1586550473.765,85.938,29.785,25.391,46.875,33.203
1586550473.769,63.477,31.250,26.367,56.152,56.641
1586550473.773,-27.832,30.762,27.832,30.273,54.688
1586550473.777,-16.602,26.367,26.855,34.668,11.719
1586550473.781,68.848,28.320,22.949,48.340,-4.883
1586550473.785,114.746,31.250,26.855,53.711,38.086
1586550473.789,21.484,33.203,30.762,21.484,21.484
1586550473.793,-28.320,33.691,26.367,-1.953,-10.742
1586550473.797,32.715,32.227,24.902,11.230,46.875
1586550473.801,101.562,32.715,27.344,38.574,94.238
1586550473.804,33.203,31.738,30.273,22.461,31.250
1586550473.808,-32.227,31.738,28.809,-2.930,-76.660
1586550473.812,13.672,30.273,26.367,11.230,-17.578
1586550473.816,79.590,27.344,26.855,41.504,63.965
1586550473.820,41.992,28.809,27.832,38.574,33.203
1586550473.824,-48.828,30.762,30.273,2.441,-7.812
1586550473.828,-22.949,29.785,27.344,0.488,9.766
1586550473.832,65.430,27.832,22.949,35.645,8.789
1586550473.836,85.938,27.344,25.879,55.176,62.012
1586550473.840,-1.465,29.297,26.367,13.672,18.066
1586550473.844,-12.695,29.785,22.461,-1.953,12.207
1586550473.847,62.988,28.320,22.949,33.203,53.711
1586550473.851,108.398,29.297,28.809,62.500,60.059
1586550473.855,19.043,31.250,31.250,42.969,48.828
1586550473.859,-45.898,30.273,27.344,13.184,1.953
1586550473.863,12.695,26.855,26.367,26.855,14.648
1586550473.867,94.238,29.785,25.391,68.848,53.223
1586550473.871,44.434,32.227,24.414,43.457,70.801
1586550473.875,-28.809,29.785,23.926,4.395,7.324
1586550473.879,20.020,29.785,25.391,18.066,7.812
1586550473.883,104.980,29.297,25.391,41.504,25.391
1586550473.887,76.172,30.762,22.949,33.691,-2.930
1586550473.890,-41.992,27.344,26.367,-9.766,29.785
1586550473.894,-38.574,26.855,28.320,-13.672,-3.906
1586550473.898,64.453,25.391,26.855,23.926,-0.977
1586550473.902,98.145,28.320,29.297,46.875,6.836
1586550473.906,8.789,34.180,29.297,10.742,-31.738
1586550473.910,-2.930,32.227,27.344,0.977,-16.113
1586550473.914,63.965,28.809,26.367,26.855,46.387
1586550473.918,88.379,27.832,27.344,51.758,109.375
1586550473.922,-0.977,28.809,29.785,38.574,55.664
1586550473.926,-38.574,28.320,27.832,11.230,17.090
1586550473.929,22.461,24.902,24.414,27.344,26.367
1586550473.933,99.609,25.879,23.438,53.711,14.160
1586550473.937,59.570,28.320,23.438,39.062,38.086
1586550473.941,-24.902,28.320,22.461,6.836,71.289
1586550473.945,11.719,30.273,26.367,22.461,23.438
1586550473.949,96.680,31.738,29.297,71.289,46.387
1586550473.953,72.754,30.762,29.785,68.359,54.199
1586550473.957,-38.574,30.273,28.809,9.766,-30.273
1586550473.961,-30.762,31.250,26.367,2.441,-31.250
1586550473.965,54.688,28.809,27.832,39.062,-4.883
1586550473.969,92.285,29.785,29.785,65.918,6.348
1586550473.972,-1.953,33.203,32.227,34.180,34.180
1586550473.976,-31.738,30.273,30.273,-8.301,-27.344
1586550473.980,57.129,30.273,25.879,-8.301,-22.949
1586550473.984,128.906,35.156,24.902,20.020,68.848
1586550473.988,41.992,30.273,23.926,15.625,16.602
1586550473.992,-43.945,26.367,23.926,-13.184,41.992
1586550473.996,2.930,34.180,27.832,8.301,92.285
1586550474.000,96.680,34.668,29.785,61.523,82.520
1586550474.004,62.012,29.785,31.250,49.805,58.594
1586550474.008,-25.391,28.320,33.203,1.465,22.949
1586550474.012,17.578,31.738,28.809,6.348,-19.043
1586550474.015,109.375,32.227,26.367,44.922,-4.395
1586550474.019,82.520,27.832,30.273,69.336,46.875
1586550474.023,-41.504,27.832,31.738,40.527,38.086
1586550474.027,-46.387,27.832,29.297,20.508,-1.953
1586550474.031,47.852,29.297,24.414,35.645,14.160
1586550474.035,112.793,31.250,25.391,39.062,57.617
1586550474.039,13.672,30.273,26.855,-5.371,39.551
1586550474.043,-54.199,27.832,28.809,-19.043,56.641
1586550474.047,4.395,25.879,29.297,25.879,59.570
1586550474.051,85.449,26.367,24.902,51.758,41.504
1586550474.054,35.645,27.344,28.809,17.090,42.969
1586550474.058,-36.133,27.832,27.832,-3.418,77.637
1586550474.062,11.719,28.809,24.902,5.859,83.008
1586550474.066,92.773,30.273,28.320,30.762,44.434
1586550474.070,62.012,27.832,25.391,26.855,24.414
1586550474.074,-41.504,25.391,26.367,-13.672,-26.855
1586550474.078,-26.855,26.855,30.762,0.977,-32.227
1586550474.082,64.453,27.832,27.832,42.480,21.973
1586550474.086,89.844,30.762,28.320,47.852,39.551
1586550474.090,-12.695,29.297,27.832,15.137,43.457
1586550474.094,-20.020,28.809,24.902,16.602,33.691
1586550474.097,64.453,30.762,23.926,50.781,-6.836
1586550474.101,116.699,31.250,26.367,77.148,24.414
1586550474.105,17.090,29.785,27.344,44.434,37.598
1586550474.109,-42.969,26.367,29.785,13.184,-42.969
1586550474.113,22.949,27.344,28.809,29.785,-46.387
1586550474.117,129.883,32.715,22.949,56.641,-7.812
1586550474.121,94.238,32.227,22.949,29.297,-33.691
1586550474.125,-19.531,32.227,24.414,-14.648,-16.602
1586550474.129,-15.625,34.668,27.832,-0.488,26.367
1586550474.133,72.266,32.715,29.297,50.293,24.414
1586550474.137,57.129,28.809,30.273,45.898,-1.465
1586550474.140,-63.965,25.879,29.785,-10.254,13.672
1586550474.144,-46.387,29.785,25.879,-17.090,41.504
1586550474.148,58.594,35.156,25.391,27.832,35.156
1586550474.152,103.516,36.621,27.832,66.406,44.434
1586550474.156,-2.930,33.203,27.832,28.809,55.664
1586550474.160,-41.504,32.715,23.438,-7.812,49.316
1586550474.164,17.578,30.762,22.461,24.414,3.906
1586550474.168,76.660,26.367,23.926,56.152,41.016
1586550474.172,21.973,25.391,25.391,22.949,20.996
1586550474.176,-40.039,23.438,26.855,8.301,-22.461
1586550474.179,1.465,20.996,29.785,36.133,10.742
1586550474.183,85.938,19.043,33.691,55.664,48.340
1586550474.187,60.547,20.508,30.762,26.855,50.781
1586550474.191,-18.555,23.438,31.738,-4.883,21.484
1586550474.195,6.836,19.531,31.250,19.531,30.762
1586550474.199,89.844,14.648,24.414,51.270,65.918
1586550474.203,73.242,15.625,25.879,39.551,109.375
1586550474.207,-44.434,16.113,28.320,10.742,55.664
1586550474.211,-34.668,14.648,27.344,8.301,43.945
1586550474.215,62.500,15.137,26.367,24.902,68.848
1586550474.219,122.559,15.625,24.902,37.598,97.656
1586550474.222,17.090,15.137,25.391,3.418,53.223
1586550474.226,-54.688,14.648,27.344,-20.996,-40.039
1586550474.230,18.066,12.695,27.832,21.973,-7.324
1586550474.234,87.891,14.648,21.973,62.988,5.859
1586550474.238,10.742,16.602,22.461,24.902,1.953
1586550474.242,-58.594,15.137,24.902,-10.742,25.879
1586550474.246,-3.418,17.578,22.461,15.625,42.480
1586550474.250,86.914,20.020,25.391,59.570,79.590
1586550474.254,52.246,15.625,27.832,49.316,74.707
1586550474.258,-58.594,14.160,22.949,7.324,77.148
1586550474.262,-50.781,12.207,20.996,14.648,7.324
1586550474.265,49.805,10.742,22.461,51.758,-21.973
1586550474.269,76.660,13.184,23.438,64.453,42.480
1586550474.273,-25.391,14.648,22.949,2.930,8.789
1586550474.277,-40.039,20.996,20.996,-46.387,41.504
1586550474.281,45.898,22.949,20.020,1.953,58.105
1586550474.285,82.520,20.996,20.508,46.387,16.113
1586550474.289,-42.969,22.461,19.531,1.953,13.672
1586550474.293,-98.145,21.973,15.137,-30.762,-23.438
1586550474.297,1.953,22.461,16.602,4.395,7.324
1586550474.301,100.098,22.461,19.043,57.129,53.711
1586550474.304,34.180,17.578,20.508,41.992,-0.488
1586550474.308,-72.754,11.230,22.949,10.254,-28.320
1586550474.312,-63.477,9.277,19.531,19.043,-30.762
1586550474.316,32.227,11.719,13.672,39.551,2.441
1586550474.320,24.902,11.719,12.207,17.578,3.906
1586550474.324,-64.941,14.160,13.184,-20.020,-51.270
1586550474.328,-43.457,17.578,18.555,-12.207,-16.602
1586550474.332,49.805,17.578,19.531,19.531,25.391
1586550474.336,92.285,20.996,20.508,35.156,64.941
1586550474.340,-5.371,24.414,24.414,7.324,45.410
1586550474.344,-51.270,22.461,19.043,-5.371,0.977
1586550474.347,34.668,19.531,16.602,22.461,20.996
1586550474.351,117.676,17.578,20.508,64.941,83.984
1586550474.355,27.344,18.555,19.531,24.902,64.941
1586550474.359,-48.828,20.508,18.555,-24.414,15.137
1586550474.363,0.977,19.043,18.066,-4.395,0.000
1586550474.367,85.449,19.043,15.625,33.691,24.414
1586550474.371,30.273,20.020,15.137,12.695,38.086
1586550474.375,-72.754,21.484,16.113,-14.160,48.828
1586550474.379,-43.945,23.438,14.160,-7.324,60.547
1586550474.383,57.129,23.438,15.137,21.484,20.020
1586550474.387,85.938,22.461,19.531,41.016,39.551
1586550474.390,-14.648,19.531,22.461,-3.906,31.250
1586550474.394,-37.598,23.438,19.043,-15.137,7.324
1586550474.398,60.059,24.902,19.043,32.227,43.457
1586550474.402,95.703,21.484,19.531,59.082,36.621
1586550474.406,-17.090,23.926,16.602,9.277,20.508
1586550474.410,-52.246,23.438,19.531,-17.578,26.855
1586550474.414,24.414,23.438,20.508,16.113,-10.254
1586550474.418,113.770,24.902,20.508,39.551,11.719
1586550474.422,45.410,22.461,22.949,5.371,85.938
1586550474.426,-28.320,20.508,22.461,-20.020,60.547
1586550474.429,14.160,20.508,19.043,-8.789,47.852
1586550474.433,98.633,19.531,20.020,35.156,30.762
1586550474.437,72.266,21.484,23.438,48.828,51.758
1586550474.441,-32.227,24.414,20.508,-1.465,117.676
1586550474.445,-16.113,24.902,22.949,-6.348,74.219
1586550474.449,88.379,28.320,24.902,39.551,34.668
1586550474.453,91.797,28.809,21.973,39.062,5.371
1586550474.457,-30.762,23.926,21.973,-0.977,-15.137
1586550474.461,-48.828,21.484,14.160,1.953,-32.715
1586550474.465,48.340,24.902,9.766,24.414,46.387
1586550474.469,121.094,25.391,20.020,35.645,91.309
1586550474.472,12.207,24.902,29.785,6.836,16.113
1586550474.476,-54.199,24.414,32.715,-29.785,-4.395
1586550474.480,14.648,24.902,25.879,-12.695,13.672
1586550474.484,95.703,27.832,19.531,36.621,31.250
1586550474.488,34.668,27.344,20.996,22.461,54.199
1586550474.492,-57.129,31.738,21.484,-12.695,9.766
1586550474.496,-29.785,27.832,20.508,-7.324,36.133
1586550474.500,61.523,21.484,15.625,28.320,82.031
1586550474.504,58.594,21.973,15.137,51.758,41.992
1586550474.508,-17.578,20.020,15.625,21.484,-25.391
1586550474.512,-11.230,21.484,13.672,-1.465,-27.344
1586550474.515,63.477,20.508,16.602,13.672,10.254
1586550474.519,87.402,20.508,16.602,53.223,29.785
1586550474.523,-39.062,20.020,17.090,22.461,34.668
1586550474.527,-72.266,20.020,11.719,-48.828,-16.602
1586550474.531,3.906,20.508,8.301,-17.578,-13.184
1586550474.535,71.289,26.367,15.625,36.621,54.199
1586550474.539,-1.465,28.320,22.461,4.883,34.668
1586550474.543,-54.199,20.508,18.555,-26.855,19.531
1586550474.547,1.953,21.973,16.113,4.395,62.500
1586550474.551,89.355,26.855,20.020,49.805,99.121
1586550474.554,28.320,24.902,20.508,23.438,71.777
1586550474.558,-69.336,24.414,18.555,-17.090,29.297
1586550474.562,-25.879,24.902,17.090,-9.277,-27.344
1586550474.566,82.031,26.367,14.648,32.715,9.277
1586550474.570,77.148,23.926,14.648,44.434,51.758
1586550474.574,-32.715,24.902,17.090,-4.395,53.711
1586550474.578,-25.391,27.832,17.090,-9.277,-17.090
1586550474.582,56.641,27.344,18.066,40.039,-45.410
1586550474.586,81.055,26.367,14.648,47.363,24.414
1586550474.590,-24.902,28.320,11.719,0.000,18.066
1586550474.594,-46.387,27.832,17.090,-13.184,1.953
1586550474.597,44.434,28.320,19.531,27.344,35.156
1586550474.601,104.492,29.297,17.578,71.289,64.453
1586550474.605,14.160,26.367,19.531,2.930,49.805
1586550474.609,-55.664,26.367,20.020,-60.059,-0.977
1586550474.613,-6.836,27.344,17.090,-16.602,-31.738
1586550474.617,69.824,24.414,18.555,39.551,17.578
1586550474.621,34.180,24.414,24.902,36.621,15.625
1586550474.625,-43.457,27.344,22.461,-5.859,11.719
1586550474.629,-6.348,26.367,17.578,-3.418,26.855
1586550474.633,99.121,24.902,15.137,45.410,4.883
1586550474.637,97.656,26.855,13.672,48.828,11.719
1586550474.640,-21.484,25.879,18.066,0.000,6.348
1586550474.644,-24.902,26.367,13.184,-9.766,35.156
1586550474.648,55.664,27.832,11.719,30.762,21.484
1586550474.652,85.449,22.461,17.090,54.199,-17.578
1586550474.656,-10.742,23.438,19.531,26.855,25.879
1586550474.660,-41.016,26.855,18.066,3.418,25.391
1586550474.664,45.410,20.996,19.531,41.016,18.555
1586550474.668,113.281,17.578,20.020,76.172,45.898
1586550474.672,40.527,21.484,14.160,-3.418,57.129
1586550474.676,-35.645,20.996,14.160,-57.129,31.250
1586550474.679,14.648,23.438,17.090,-28.320,8.789
1586550474.683,111.816,22.461,16.113,24.902,42.969
1586550474.687,68.359,20.996,19.531,21.484,25.879
1586550474.691,-28.809,25.391,21.484,-16.113,-26.367
1586550474.695,-11.230,27.832,19.043,-12.695,-21.973
1586550474.699,68.359,23.438,20.996,34.668,-26.367
1586550474.703,79.102,22.461,18.555,55.664,22.461
1586550474.707,-26.855,22.949,21.484,11.719,51.270
1586550474.711,-41.992,22.949,15.137,-2.930,-9.766
1586550474.715,41.992,24.902,6.348,29.297,1.465
1586550474.719,105.469,21.973,23.438,62.012,74.219
1586550474.722,18.555,23.438,34.180,22.949,73.730
1586550474.726,-44.922,22.949,32.715,-8.789,7.324
1586550474.730,8.789,20.508,26.855,17.578,1.465
1586550474.734,86.914,20.996,20.996,39.551,88.379
1586550474.738,14.160,21.973,19.043,3.906,120.117
1586550474.742,-65.430,22.461,18.555,-26.855,40.527
1586550474.746,-2.441,23.438,19.531,-5.859,11.230
1586550474.750,106.934,25.391,19.531,32.227,46.387
1586550474.754,98.633,26.367,19.043,26.367,48.828
1586550474.758,-30.762,22.461,18.555,-15.137,16.113
1586550474.762,-50.293,20.020,17.090,-3.418,17.578
1586550474.765,41.016,21.973,16.113,36.621,58.594
1586550474.769,69.336,23.926,18.066,45.898,78.125
1586550474.773,-24.414,23.438,14.160,7.324,45.410
1586550474.777,-39.551,21.973,12.207,-3.418,20.020
1586550474.781,35.645,21.973,15.625,34.180,-8.789
1586550474.785,104.492,24.902,18.555,59.082,32.715
1586550474.789,26.367,24.902,13.184,9.766,25.391
1586550474.793,-22.949,22.949,7.812,-29.297,-6.836
1586550474.797,51.270,24.414,12.695,-4.395,17.090
1586550474.801,128.418,26.367,15.137,39.062,14.160
1586550474.804,63.477,27.832,16.602,20.508,55.664
1586550474.808,-50.781,26.855,13.184,-5.859,55.664
1586550474.812,-49.316,22.949,8.789,2.930,-0.977
1586550474.816,46.875,21.973,11.719,27.344,0.488
1586550474.820,60.547,24.414,16.113,31.250,45.410
1586550474.824,-41.016,22.461,20.020,-12.695,30.762
1586550474.828,-41.016,18.555,19.531,4.883,38.086
1586550474.832,39.062,19.531,17.578,65.918,65.430
1586550474.836,75.195,18.555,17.090,75.684,72.266
1586550474.840,-24.902,18.555,13.184,8.301,41.992
1586550474.844,-54.199,21.973,10.254,-38.574,47.363
1586550474.847,11.230,21.484,10.742,-20.020,68.848
1586550474.851,85.449,24.414,5.859,22.461,50.293
1586550474.855,31.250,27.832,3.906,-0.977,79.590
1586550474.859,-46.875,23.926,11.719,-35.645,70.801
1586550474.863,3.418,22.461,10.742,-10.254,-0.488
1586550474.867,106.445,27.344,6.348,36.133,-42.480
1586550474.871,60.547,31.738,9.766,26.855,-11.719
1586550474.875,-46.387,28.809,15.137,-20.020,16.602
1586550474.879,-21.973,21.973,19.043,-22.461,44.922
1586550474.883,76.172,19.531,18.066,27.832,75.195
1586550474.887,62.012,20.020,23.926,68.359,51.758
1586550474.890,-66.895,19.531,26.367,43.457,12.695
1586550474.894,-56.152,18.066,21.484,12.207,20.996
1586550474.898,51.758,18.066,24.902,37.598,-14.648
1586550474.902,113.281,17.578,27.832,56.641,-5.371
1586550474.906,4.395,22.461,22.949,-10.254,-6.348
1586550474.910,-60.059,24.902,14.160,-42.969,43.945
1586550474.914,0.977,20.996,15.137,-6.836,32.715
1586550474.918,89.355,24.414,19.531,34.668,-22.949
1586550474.922,35.156,28.809,20.508,29.785,36.133
1586550474.926,-41.016,25.391,20.996,1.953,7.324
1586550474.929,2.930,23.926,20.996,9.766,11.230
1586550474.933,81.543,26.367,19.043,44.922,45.410
1586550474.937,46.387,27.344,19.043,22.949,62.500
1586550474.941,-52.246,24.902,20.996,-28.809,60.547
1586550474.945,-32.227,24.414,18.066,-16.602,43.457
1586550474.949,60.059,23.926,19.043,31.250,15.137
1586550474.953,86.914,26.367,20.508,42.969,6.348
1586550474.957,-10.742,25.391,17.578,4.395,39.062
1586550474.961,-37.109,23.438,17.090,-7.812,71.289
1586550474.965,46.875,23.438,19.531,22.949,48.828
1586550474.969,122.070,22.461,15.137,51.270,35.156
1586550474.972,36.133,22.461,10.742,5.371,13.672
1586550474.976,-22.949,20.508,12.695,-13.184,-27.344
1586550474.980,21.973,17.090,12.695,28.320,39.551
1586550474.984,62.500,15.625,14.648,56.641,80.078
1586550474.988,-8.301,15.625,18.066,14.160,18.066
1586550474.992,-69.336,17.578,15.137,-37.109,-46.875
1586550474.996,-14.160,17.090,16.602,-31.250,-26.367
1586550475.000,82.520,19.531,13.672,14.160,45.410
1586550475.004,70.801,19.531,13.672,22.461,30.273
1586550475.008,-43.945,18.066,20.020,0.488,-9.766
1586550475.012,-37.109,18.066,22.461,4.395,13.672
1586550475.015,63.477,17.090,25.879,24.414,59.082
1586550475.019,92.285,18.555,23.926,38.574,50.781
1586550475.023,-20.020,20.996,21.973,-7.324,24.902
1586550475.027,-58.105,20.020,25.391,-17.090,-18.555
1586550475.031,21.973,19.043,25.391,20.996,17.578
1586550475.035,95.215,22.461,22.949,52.734,71.777
1586550475.039,-1.465,23.926,22.949,28.320,14.648
1586550475.043,-63.477,22.461,22.949,-5.859,-32.715
1586550475.047,11.230,24.414,20.996,2.930,-36.621
1586550475.051,98.145,25.879,18.066,40.527,8.301
1586550475.054,31.738,20.020,17.090,27.344,33.203
1586550475.058,-66.895,23.926,18.555,-15.625,49.805
1586550475.062,-20.508,28.809,17.090,-7.812,46.875
1586550475.066,67.383,22.949,15.625,31.738,28.320
1586550475.070,61.523,19.043,17.578,27.832,10.742
1586550475.074,-45.898,20.996,15.625,-15.137,11.719
1586550475.078,-32.227,21.973,16.602,-27.344,19.531
1586550475.082,76.172,20.020,18.066,13.672,15.625
1586550475.086,105.957,19.531,19.531,68.359,-10.254
1586550475.090,-19.043,19.531,21.484,28.809,13.672
1586550475.094,-76.660,18.066,17.090,-23.438,36.621
1586550475.097,-3.906,18.555,12.695,0.977,51.270
1586550475.101,72.266,22.461,12.695,30.762,54.199
1586550475.105,-9.766,24.414,16.113,7.324,61.523
1586550475.109,-62.500,23.926,16.602,-25.391,67.383
1586550475.113,11.719,26.367,15.625,-0.977,110.840
1586550475.117,80.566,21.973,16.602,48.828,97.656
1586550475.121,25.879,18.066,16.602,36.133,47.363
1586550475.125,-67.871,20.020,13.672,-16.113,51.270
1586550475.129,-36.621,19.043,12.207,-18.555,45.898
1586550475.133,69.824,20.020,14.648,27.832,45.410
1586550475.137,100.098,23.438,19.531,42.480,54.199
1586550475.140,17.578,25.391,21.973,-9.277,14.160
1586550475.144,-10.254,22.461,18.555,-7.812,-21.484
1586550475.148,36.621,21.484,13.672,32.227,3.418
1586550475.152,79.102,23.926,16.602,39.062,36.621
1586550475.156,-30.273,23.926,18.555,-3.418,25.391
1586550475.160,-96.191,19.531,14.160,-20.996,-5.371
1586550475.164,-12.695,20.020,13.672,24.414,-4.395
1586550475.168,74.707,21.973,11.230,58.594,23.438
1586550475.172,7.324,20.508,8.789,29.297,11.230
1586550475.176,-59.570,20.996,11.719,-16.602,29.785
1586550475.179,2.441,21.484,14.160,-10.742,66.406
1586550475.183,110.352,24.414,13.672,22.949,76.172
1586550475.187,88.867,25.391,11.230,11.230,70.801
1586550475.191,-24.902,29.297,15.625,-23.438,-5.371
1586550475.195,-29.785,32.227,19.043,2.441,-12.207
1586550475.199,57.617,33.203,15.625,48.828,69.336
1586550475.203,88.867,36.621,21.484,53.711,52.734
1586550475.207,-16.602,39.551,26.367,2.441,-17.578
1586550475.211,-28.320,37.598,26.855,-14.160,-34.180
1586550475.215,64.453,34.668,27.344,33.691,-13.184
1586550475.219,126.953,40.527,24.902,71.777,35.156
1586550475.222,40.039,44.434,26.855,40.039,93.262
1586550475.226,-27.832,42.480,32.227,9.766,79.102
1586550475.230,40.039,38.574,33.203,32.227,48.828
1586550475.234,136.230,36.621,33.691,82.031,81.055
1586550475.238,56.641,34.668,33.203,54.688,22.461
1586550475.242,-44.434,36.133,26.855,-10.742,-30.273
1586550475.246,12.207,38.574,27.344,-12.695,15.137
1586550475.250,124.512,39.062,27.344,40.039,20.996
1586550475.254,131.836,39.062,28.320,62.988,39.551
1586550475.258,-2.930,39.551,30.273,21.973,4.883
1586550475.262,-44.922,33.203,24.414,7.324,-12.695
1586550475.265,50.781,29.297,26.367,41.992,74.707
1586550475.269,96.191,30.273,30.762,71.777,57.129
1586550475.273,-4.395,31.250,28.809,34.180,24.414
1586550475.277,-26.855,31.250,26.367,15.137,20.508
1586550475.281,54.199,24.902,20.020,50.781,7.812
1586550475.285,100.098,22.949,15.625,85.938,15.137
1586550475.289,10.254,23.438,16.113,35.645,4.395
1586550475.293,-52.734,17.578,16.113,-28.809,-6.836
1586550475.297,2.441,13.184,13.184,-8.789,37.598
1586550475.301,96.191,15.137,10.254,26.367,-2.441
1586550475.304,59.570,22.461,18.066,17.090,-30.273
1586550475.308,-21.973,29.785,23.926,-25.391,-4.883
1586550475.312,-7.812,28.809,24.902,-7.812,26.855
1586550475.316,54.199,22.949,25.879,51.270,42.969
1586550475.320,52.246,22.461,22.949,38.086,31.250
1586550475.324,-46.387,23.926,20.996,-6.836,12.207
1586550475.328,-31.250,21.973,20.996,-6.836,30.762
1586550475.332,61.523,21.484,17.578,34.180,51.270
1586550475.336,99.121,22.461,16.602,66.406,48.340
1586550475.340,6.348,26.367,20.508,30.762,13.672
1586550475.344,-32.715,26.855,18.066,4.883,-6.348
1586550475.347,32.715,24.902,20.508,46.875,39.551
1586550475.351,114.258,26.855,25.391,89.844,88.379
1586550475.355,47.363,25.879,23.438,34.180,66.895
1586550475.359,-32.227,26.367,21.973,-32.227,19.043
1586550475.363,20.508,27.344,20.508,-11.230,10.742
1586550475.367,97.168,27.832,19.043,34.180,-23.438
1586550475.371,63.965,28.809,21.484,25.391,10.742
1586550475.375,-44.434,27.344,20.020,-13.184,44.922
1586550475.379,-31.738,24.902,19.531,-9.766,9.277
1586550475.383,75.195,25.391,22.461,24.414,4.395
1586550475.387,97.656,26.367,20.508,28.809,39.062
1586550475.390,-7.324,26.855,22.949,0.488,21.973
1586550475.394,-27.344,31.250,21.484,-7.812,19.531
1586550475.398,63.477,31.738,18.555,12.695,3.906
1586550475.402,90.332,27.344,21.484,52.734,30.762
1586550475.406,-41.504,24.902,29.785,34.180,50.293
1586550475.410,-81.055,27.344,28.320,-10.742,70.312
1586550475.414,7.812,29.785,20.996,1.953,120.117
1586550475.418,101.074,29.297,22.461,43.457,51.758
1586550475.422,26.855,29.785,21.484,28.320,-0.488
1586550475.426,-58.105,28.320,20.020,3.418,-24.902
1586550475.429,7.812,30.273,23.926,21.973,-12.695
1586550475.433,123.047,34.180,22.461,43.457,39.551
1586550475.437,133.301,36.621,19.043,37.109,39.062
1586550475.441,20.996,34.180,14.160,-1.465,11.230
1586550475.445,7.324,28.809,18.066,-10.254,32.715
1586550475.449,100.586,30.762,23.926,35.156,-10.742
1586550475.453,123.535,33.203,20.508,63.965,-22.461
1586550475.457,30.273,30.273,22.949,5.859,19.043
1586550475.461,-25.391,29.785,24.902,-16.602,-12.207
1586550475.465,-12.695,31.250,20.996,35.645,35.156
1586550475.469,35.645,30.273,20.996,55.176,65.918
1586550475.472,-32.227,26.855,21.973,12.207,27.832
1586550475.476,-78.613,24.902,22.461,-20.508,76.172
1586550475.480,-19.531,23.926,18.555,-9.766,71.289
1586550475.484,61.523,15.137,15.137,45.410,49.316
1586550475.488,17.090,18.555,14.648,48.828,48.340
1586550475.492,-71.289,23.438,12.695,-13.184,54.199
1586550475.496,-41.016,22.949,11.719,-23.926,45.898
1586550475.500,26.367,22.949,11.230,28.809,-8.789
1586550475.504,22.949,23.926,15.137,42.969,0.977
1586550475.508,-54.688,24.902,19.043,3.418,-18.066
1586550475.512,-52.734,20.508,18.555,-6.348,-36.621
1586550475.515,12.207,20.508,13.672,21.484,8.301
1586550475.519,41.504,25.879,12.695,39.551,58.105
1586550475.523,-59.082,23.926,17.090,-3.418,25.879
1586550475.527,-93.750,20.508,18.066,-19.531,-12.207
1586550475.531,11.719,20.996,16.113,22.949,5.859
1586550475.535,99.121,24.902,14.648,41.992,19.043
1586550475.539,21.973,29.297,14.648,5.859,42.969
1586550475.543,-66.406,26.367,13.672,-16.602,80.078
1586550475.547,-22.461,22.949,12.207,3.418,87.891
1586550475.551,78.613,23.438,14.648,51.758,81.543
1586550475.554,57.617,24.414,14.648,40.039,38.086
1586550475.558,-24.414,24.902,17.090,-7.324,-7.324
1586550475.562,-7.324,25.391,20.508,-13.184,-5.371
1586550475.566,60.059,22.461,15.137,38.574,13.672
1586550475.570,24.414,18.555,17.090,51.758,73.730
1586550475.574,-98.633,16.113,20.996,-4.883,30.762
1586550475.578,-86.426,19.531,21.484,-7.324,8.301
1586550475.582,10.254,20.508,19.531,27.832,34.180
1586550475.586,74.219,25.879,16.113,42.480,27.344
1586550475.590,-30.273,27.344,20.996,8.789,35.645
1586550475.594,-84.473,19.043,27.344,-8.789,19.531
1586550475.597,0.000,18.066,24.414,15.137,37.109
1586550475.601,70.312,16.602,24.414,55.176,43.945
1586550475.605,-9.766,11.230,24.902,30.273,-7.812
1586550475.609,-79.102,8.301,25.879,-13.672,-13.672
1586550475.613,-19.043,5.859,22.949,9.277,-36.621
1586550475.617,75.195,5.859,19.043,60.059,-16.602
1586550475.621,47.363,8.789,18.066,51.270,-6.348
1586550475.625,-55.176,11.719,15.137,-14.160,-31.738
1586550475.629,-47.363,12.695,15.625,-24.902,-2.930
1586550475.633,40.039,13.672,14.160,17.090,11.719
1586550475.637,62.012,18.555,12.695,37.109,15.625
1586550475.640,-29.297,20.020,16.113,-3.906,-0.977
1586550475.644,-20.508,19.043,20.020,-20.508,20.996
1586550475.648,58.105,18.066,20.508,17.090,46.387
1586550475.652,94.238,13.184,21.973,58.594,48.340
1586550475.656,0.000,12.695,24.414,26.367,81.543
1586550475.660,-53.223,11.719,19.531,-12.207,78.125
1586550475.664,27.832,11.230,15.625,1.953,41.016
1586550475.668,123.047,11.719,16.602,44.922,3.906
1586550475.672,56.641,14.160,14.648,16.113,14.160
1586550475.676,-51.270,18.555,17.090,-27.344,4.883
1586550475.679,-29.297,17.578,16.602,-1.953,-31.250
1586550475.683,37.598,13.184,14.160,35.156,62.988
1586550475.687,20.020,9.277,15.137,31.250,125.977
1586550475.691,-57.617,11.230,15.625,-13.672,64.941
1586550475.695,-13.672,14.160,15.625,-24.902,-21.973
1586550475.699,73.730,13.184,16.113,8.789,-28.320
1586550475.703,75.684,13.672,15.625,33.691,37.598
1586550475.707,-38.086,12.695,19.043,13.672,37.109
1586550475.711,-56.641,11.230,20.996,-10.742,-22.949
1586550475.715,20.508,14.648,14.160,9.277,3.418
1586550475.719,65.918,17.578,6.836,38.086,42.969
1586550475.722,-25.391,11.230,6.348,6.348,43.945
1586550475.726,-90.820,6.348,6.348,-15.137,35.645
1586550475.730,-31.738,5.371,2.930,5.859,20.020
1586550475.734,45.410,2.441,7.812,43.945,47.363
1586550475.738,0.488,4.395,13.672,19.531,16.113
1586550475.742,-86.426,7.324,13.184,-38.574,-6.348
1586550475.746,-40.039,10.742,8.789,-20.508,-14.648
1586550475.750,34.180,12.207,8.789,34.668,-2.441
1586550475.754,20.020,10.742,12.695,31.738,81.543
1586550475.758,-62.012,12.207,11.719,-28.320,69.824
1586550475.762,-51.270,12.695,9.277,-39.551,14.648
1586550475.765,9.766,16.113,7.812,8.789,51.758
1586550475.769,40.527,14.160,6.836,41.016,74.219
1586550475.773,-35.645,12.695,9.766,2.441,25.879
1586550475.777,-66.895,15.625,9.277,-32.227,-34.668
1586550475.781,13.672,12.207,6.348,-4.395,5.859
1586550475.785,71.777,11.719,2.930,42.480,85.938
1586550475.789,-37.598,12.695,2.930,15.137,28.320
1586550475.793,-128.906,11.719,7.812,-16.602,-6.348
1586550475.797,-66.895,9.277,10.254,4.395,8.789
1586550475.801,7.324,5.371,6.348,39.062,3.418
1586550475.804,-33.203,9.766,5.371,16.602,48.828
1586550475.808,-104.004,14.160,7.812,-26.367,-16.602
1586550475.812,-59.570,11.719,4.395,-23.926,-39.551
1586550475.816,37.598,5.859,2.441,11.719,-0.488
1586550475.820,47.852,5.859,2.441,22.461,-34.668
1586550475.824,-61.035,8.789,-0.488,-34.180,-25.879
1586550475.828,-73.242,8.301,-2.441,-29.785,-10.742
1586550475.832,2.930,4.395,3.418,25.879,29.785
1586550475.836,36.621,4.883,7.812,62.988,52.246
1586550475.840,-55.664,7.324,9.277,21.973,21.484
1586550475.844,-88.867,8.301,10.254,-34.180,28.809
1586550475.847,-22.461,10.254,6.348,-17.578,2.441
1586550475.851,52.246,11.719,2.441,22.461,43.945
1586550475.855,-21.484,12.207,3.906,-12.695,27.344
1586550475.859,-105.469,8.789,1.465,-48.340,7.812
1586550475.863,-48.828,7.324,-1.465,-30.762,65.430
1586550475.867,40.039,8.301,-0.977,6.836,77.148
1586550475.871,20.020,7.324,-2.930,15.137,58.105
1586550475.875,-77.637,2.441,0.488,-12.207,29.297
1586550475.879,-84.473,5.371,1.953,-7.812,71.777
1586550475.883,-28.809,8.301,1.465,16.602,92.285
1586550475.887,-1.953,6.348,5.371,37.598,101.074
1586550475.890,-79.590,7.324,4.395,-15.137,91.797
1586550475.894,-80.566,8.301,3.418,-22.461,30.273
1586550475.898,2.930,9.766,5.371,32.227,-3.906
1586550475.902,42.969,8.301,5.859,54.199,4.395
1586550475.906,-46.387,2.441,3.906,8.789,27.344
1586550475.910,-96.191,4.883,2.441,-40.039,56.641
1586550475.914,-40.527,5.371,6.836,-7.812,74.219
1586550475.918,34.668,4.395,6.348,37.598,92.773
1586550475.922,-24.902,9.277,2.441,0.977,57.617
1586550475.926,-109.375,7.324,-0.977,-59.082,15.625
1586550475.929,-77.148,2.441,-4.883,-38.574,9.277
1586550475.933,-29.297,-5.859,-2.441,32.715,15.137
1586550475.937,-37.598,-9.766,-1.465,38.086,11.230
1586550475.941,-128.418,-4.883,-5.371,-23.926,-47.363
1586550475.945,-118.652,-4.883,-9.277,-47.363,-41.016
1586550475.949,-12.695,-1.465,-13.184,-20.020,11.230
1586550475.953,12.695,1.465,-11.230,-13.184,14.160
1586550475.957,-74.707,-6.836,-8.301,-37.109,26.367
1586550475.961,-84.961,-9.277,-7.324,-39.062,19.043
1586550475.965,-17.090,0.000,-12.695,-25.879,12.695
1586550475.969,37.109,-3.906,-13.672,14.648,49.316
1586550475.972,-46.387,-4.395,-10.742,-15.137,45.898
1586550475.976,-108.887,3.418,-10.254,-63.477,-11.719
1586550475.980,-42.969,-1.465,-9.766,-31.250,-15.137
1586550475.984,49.316,1.465,-10.254,6.348,-25.879
1586550475.988,3.418,4.395,-11.719,-7.324,0.977
1586550475.992,-82.520,1.953,-11.230,-49.805,89.355
1586550475.996,-45.898,0.977,-6.836,-38.574,106.445
1586550476.000,43.945,-0.488,-8.301,2.441,102.539
1586550476.004,40.039,2.441,-9.766,19.043,60.547
1586550476.008,-62.988,4.395,-9.277,-12.695,0.977
1586550476.012,-50.781,6.348,-12.695,-52.246,49.805
1586550476.015,31.738,4.395,-11.719,-17.090,102.051
1586550476.019,65.430,1.465,-9.277,13.672,37.109
1586550476.023,-26.855,1.953,-5.859,-22.949,5.371
1586550476.027,-86.914,-1.465,-4.883,-57.129,9.766
1586550476.031,-34.180,0.000,-7.812,-29.785,15.137
1586550476.035,51.758,3.418,-10.742,27.832,60.059
1586550476.039,-3.418,1.465,-7.812,22.949,25.391
1586550476.043,-60.059,0.000,-6.348,3.906,-4.883
1586550476.047,12.207,-2.441,-3.906,8.789,4.883
1586550476.051,101.074,-0.488,-0.977,28.809,29.297
1586550476.054,54.199,3.418,-3.906,2.441,38.086
1586550476.058,-66.895,1.953,-3.418,-32.227,70.312
1586550476.062,-63.965,2.441,0.488,-24.414,78.613
1586550476.066,31.250,3.418,0.488,7.324,51.270
1586550476.070,50.293,1.465,0.977,33.691,39.551
1586550476.074,-61.035,-1.953,-0.977,-5.371,13.672
1586550476.078,-69.336,0.977,-2.930,-24.902,19.531
1586550476.082,20.020,-2.930,-0.977,4.883,22.949
1586550476.086,76.172,2.441,-3.906,17.578,24.414
1586550476.090,-3.906,7.812,-3.418,-15.137,-6.836
1586550476.094,-64.941,2.930,2.441,-36.621,5.371
1586550476.097,-17.090,4.883,1.465,-1.953,31.250
1586550476.101,52.246,0.977,-0.488,50.293,-9.277
1586550476.105,1.465,2.441,-0.488,20.996,-6.836
1586550476.109,-64.453,6.348,-1.953,-28.809,-2.441
1586550476.113,-15.625,2.930,-1.465,-11.230,34.668
1586550476.117,88.867,2.930,-3.418,23.926,59.570
1586550476.121,52.734,2.930,-1.953,19.531,14.160
1586550476.125,-87.891,0.977,5.859,-19.043,-11.719
1586550476.129,-80.078,0.977,5.371,-21.973,14.648
1586550476.133,21.973,1.465,1.465,22.461,3.906
1586550476.137,57.617,1.465,4.883,60.059,27.344
1586550476.140,-40.527,0.488,3.418,18.066,23.438
1586550476.144,-37.109,0.977,0.488,-14.648,24.902
1586550476.148,54.688,-1.953,1.953,13.672,52.246
1586550476.152,94.238,-3.418,2.930,25.879,60.059
1586550476.156,-31.738,-2.441,10.254,0.000,55.176
1586550476.160,-104.492,-5.371,10.742,-18.066,34.668
1586550476.164,-33.691,0.977,4.883,11.719,-14.160
1586550476.168,67.383,3.906,6.836,42.969,-4.883
1586550476.172,32.715,1.953,6.836,7.812,67.871
1586550476.176,-53.223,0.977,2.441,-35.645,81.543
1586550476.179,-20.996,0.000,-0.977,-25.391,-6.836
1586550476.183,55.176,-2.441,-0.977,25.879,-26.855
1586550476.187,37.598,-4.395,4.883,45.410,48.340
1586550476.191,-74.707,0.000,3.418,-20.508,22.949
1586550476.195,-36.621,7.324,-7.812,-52.734,-65.430
1586550476.199,72.266,6.348,-14.160,-8.301,-72.266
1586550476.203,74.219,-0.977,-5.859,12.207,18.066
1586550476.207,-46.387,-5.859,0.000,-28.809,30.273
1586550476.211,-73.242,-8.789,-1.953,-38.086,-29.297
1586550476.215,-2.441,-8.301,3.418,-11.230,-2.930
1586550476.219,65.918,-9.766,5.371,21.973,55.664
1586550476.222,-1.953,-8.301,5.371,7.324,25.879
1586550476.226,-62.988,-6.836,4.883,-38.574,1.953
1586550476.230,-21.973,-13.184,0.488,-46.875,-15.137
1586550476.234,51.270,-12.207,-1.465,-14.160,-30.762
1586550476.238,12.695,-2.441,-0.488,3.906,-35.645
1586550476.242,-93.262,-1.953,3.906,-25.879,34.668
1586550476.246,-47.852,-4.395,8.789,-33.203,16.113
1586550476.250,62.988,0.977,8.301,20.996,0.977
1586550476.254,71.777,1.953,6.836,27.832,83.496
1586550476.258,-46.387,-1.953,5.859,-17.090,86.426
1586550476.262,-65.918,0.488,5.371,-23.438,18.555
1586550476.265,21.973,-0.977,7.324,20.508,0.000
1586550476.269,58.105,-5.859,5.859,41.504,58.105
1586550476.273,-46.875,-3.906,3.906,-1.465,45.898
1586550476.277,-84.961,-2.441,5.371,-21.484,-54.688
1586550476.281,-8.301,-4.395,4.395,-13.184,-29.785
1586550476.285,68.359,-5.371,2.930,25.391,56.152
1586550476.289,1.953,-3.418,3.418,11.230,32.715
1586550476.293,-99.609,-6.348,5.859,-15.137,4.883
1586550476.297,-79.102,-9.277,2.441,-20.996,15.137
1586550476.301,9.277,-8.789,-3.418,1.953,14.160
1586550476.304,6.836,-7.812,-1.953,21.973,0.977
1586550476.308,-58.594,-4.395,-4.395,-31.738,38.086
1586550476.312,-25.391,-1.953,-4.883,-41.016,90.820
1586550476.316,40.527,0.977,-0.488,0.488,90.332
1586550476.320,28.320,0.000,0.488,27.832,60.059
1586550476.324,-80.078,-4.883,2.441,-6.348,40.039
1586550476.328,-73.242,-2.930,0.000,-32.227,27.344
1586550476.332,10.254,-1.465,-2.930,-9.277,39.062
1586550476.336,56.641,-5.371,-0.488,34.668,65.918
1586550476.340,-19.043,-6.348,0.977,6.348,21.973
1586550476.344,-60.059,-4.883,-1.953,-24.414,25.391
1586550476.347,-4.395,-7.324,-2.930,1.953,57.617
1586550476.351,57.617,-10.254,-2.441,24.902,71.777
1586550476.355,2.441,-4.883,-9.277,-6.348,32.715
1586550476.359,-76.660,0.977,-6.348,-53.711,81.543
1586550476.363,-28.320,-3.418,1.465,-31.738,75.195
1586550476.367,67.383,-4.883,-5.859,17.578,44.434
1586550476.371,52.246,2.441,-12.695,-0.977,65.918
1586550476.375,-48.340,0.488,-9.277,-41.504,22.949
1586550476.379,-65.430,-2.441,-8.301,-29.297,9.277
1586550476.383,-2.441,-2.930,-11.230,5.371,2.441
1586550476.387,21.484,-0.977,-8.301,41.016,42.480
1586550476.390,-79.590,-0.977,-5.371,6.836,40.039
1586550476.394,-98.145,-5.371,-3.418,-35.645,-5.859
1586550476.398,-24.414,-1.953,-7.812,-23.926,18.555
1586550476.402,38.574,-0.977,-10.254,14.160,13.184
1586550476.406,-24.414,-2.441,-7.324,-6.348,-10.254
1586550476.410,-70.312,1.465,-7.812,-38.086,30.273
1586550476.414,-21.484,-1.465,-5.859,-11.230,26.855
1586550476.418,-0.488,-1.465,-3.906,27.344,42.969
1586550476.422,-55.176,4.395,-4.883,7.812,75.195
1586550476.426,-130.371,-0.977,-4.395,-23.926,33.691
1586550476.429,-89.355,-0.977,-7.812,-34.180,-6.836
1586550476.433,18.555,2.930,-5.859,-4.395,25.391
1586550476.437,14.648,-1.953,1.953,14.648,59.082
1586550476.441,-60.547,0.977,2.441,-14.648,-4.883
1586550476.445,-44.434,7.324,-4.883,-2.930,-12.695
1586550476.449,14.648,2.930,-10.742,11.230,1.465
1586550476.453,33.691,0.000,-10.742,22.461,51.758
1586550476.457,-53.223,2.930,-6.836,0.488,80.078
1586550476.461,-91.797,-0.977,-5.371,-21.484,21.973
1586550476.465,-24.414,-3.906,-6.836,-1.465,34.180
1586550476.469,69.824,-4.395,0.000,32.227,39.551
1586550476.472,37.598,-0.488,0.488,-2.930,10.742
1586550476.476,-63.477,7.812,-8.301,-48.340,22.461
1586550476.480,-79.590,6.836,-6.836,-27.344,38.574
1586550476.484,-14.160,4.883,-7.812,28.809,11.230
1586550476.488,-58.105,0.977,-7.324,25.391,16.602
1586550476.492,-131.836,-1.465,-4.395,-20.996,18.555
1586550476.496,-71.777,3.418,-4.883,-18.066,14.160
1586550476.500,20.020,5.371,-4.883,19.531,65.918
1586550476.504,11.230,0.000,-1.465,36.621,63.477
1586550476.508,-101.074,0.488,-2.930,-8.301,15.625
1586550476.512,-88.867,1.953,-6.348,-27.832,-18.066
1586550476.515,-2.441,-2.930,-2.441,1.465,-3.418
1586550476.519,30.273,-2.930,-0.977,24.414,13.672
1586550476.523,-62.988,2.930,-4.883,-1.465,20.508
1586550476.527,-102.051,3.418,-6.348,-27.832,12.695
1586550476.531,-24.902,-0.488,-1.465,-10.254,-10.254
1586550476.535,43.457,-0.977,2.441,27.344,23.438
1586550476.539,-14.160,3.906,2.930,10.742,59.082
1586550476.543,-72.266,7.324,3.906,-24.902,43.945
1586550476.547,-20.996,1.465,0.977,-10.742,29.785
1586550476.551,49.805,0.000,-4.395,20.508,5.371
1586550476.554,-7.812,0.000,-5.859,10.254,39.551
1586550476.558,-118.164,-5.859,-4.883,-11.719,1.465
1586550476.562,-84.473,-1.465,-4.883,5.859,-2.930
1586550476.566,8.301,4.395,-6.348,23.438,65.918
1586550476.570,16.602,1.465,-3.906,22.461,13.672
1586550476.574,-69.336,4.395,-3.418,-27.344,46.387
1586550476.578,-84.473,3.418,-5.371,-57.129,71.289
1586550476.582,-13.184,-0.977,-5.371,-28.809,41.992
1586550476.586,52.734,0.488,-2.441,13.672,63.477
1586550476.590,-46.387,-1.953,3.906,-6.836,83.008
1586550476.594,-103.516,-1.953,0.977,-37.598,54.688
1586550476.597,-37.598,0.488,-4.883,-26.367,24.902
1586550476.601,18.066,-3.418,-4.883,19.043,31.738
1586550476.605,-39.551,-6.348,-1.953,8.301,31.738
1586550476.609,-115.723,-6.348,-0.977,-34.668,80.566
1586550476.613,-67.383,-4.395,-2.441,-17.578,41.016
1586550476.617,27.344,-2.441,0.977,20.996,39.062
1586550476.621,32.227,-2.441,0.488,20.508,108.398
1586550476.625,-70.801,-4.395,-1.953,-29.785,57.617
1586550476.629,-61.523,-3.418,-1.953,-46.387,42.969
1586550476.633,13.672,-6.836,-4.395,11.230,65.918
1586550476.637,34.668,-10.254,-3.906,43.457,31.738
1586550476.640,-26.855,-0.977,-1.465,-12.695,-18.555
1586550476.644,-45.898,-0.488,-2.441,-36.133,2.441
1586550476.648,8.301,-6.836,-4.883,-5.859,-7.324
1586550476.652,63.965,-1.953,-5.859,28.809,-5.859
1586550476.656,-7.812,2.930,-6.348,-2.441,-0.977
1586550476.660,-57.129,2.441,-6.348,-36.133,-6.348
1586550476.664,-12.207,3.418,-2.441,-16.602,20.996
1586550476.668,23.438,4.883,-0.977,22.949,35.645
1586550476.672,-32.715,4.395,-5.371,14.160,65.918
1586550476.676,-108.398,0.977,-6.836,-31.738,50.293
1586550476.679,-62.012,-0.977,-2.441,-18.066,-25.879
1586550476.683,24.902,-0.488,-1.953,16.113,-13.672
1586550476.687,7.324,1.465,-0.977,14.160,-1.465
1586550476.691,-96.680,0.977,0.977,-18.555,38.574
1586550476.695,-92.285,-2.441,1.465,-17.578,39.551
1586550476.699,0.488,-2.930,0.977,10.742,16.113
1586550476.703,39.062,-2.441,-1.953,27.832,35.156
1586550476.707,-53.711,-2.930,0.000,-4.883,5.859
1586550476.711,-75.684,0.488,3.418,-23.926,7.324
1586550476.715,4.395,3.418,2.441,7.812,-14.648
1586550476.719,52.246,-2.930,3.418,41.992,5.859
1586550476.722,-19.531,-3.418,2.441,15.625,49.805
1586550476.726,-67.871,-4.395,-1.953,-12.207,14.160
1586550476.730,-31.738,-7.812,-3.418,4.395,3.418
1586550476.734,58.594,1.953,-0.488,31.738,81.055
1586550476.738,32.715,5.859,-0.488,18.066,36.133
1586550476.742,-92.285,1.953,-1.953,-23.438,28.809
1586550476.746,-72.754,1.465,-2.930,-26.855,62.988
1586550476.750,20.996,5.371,-6.348,10.742,53.223
1586550476.754,10.742,4.395,-1.953,21.484,84.961
1586550476.758,-113.281,-3.418,1.953,-14.648,39.062
1586550476.762,-108.887,0.977,-5.371,-21.973,-14.160
1586550476.765,-21.484,0.977,-9.766,10.742,23.438
1586550476.769,33.203,-0.488,-5.371,45.898,71.289
1586550476.773,-67.871,-0.977,-0.977,9.277,83.496
1586550476.777,-143.555,-1.953,-4.395,-35.645,56.152
1586550476.781,-121.582,0.000,-6.836,-23.926,36.133
1586550476.785,-102.051,-0.977,-4.883,15.137,69.336
1586550476.789,-192.383,0.488,-4.395,11.230,77.637
1586550476.793,-300.293,-1.465,-4.395,-20.996,70.801
1586550476.797,-279.297,-3.418,-8.301,-27.832,51.758
1586550476.801,-224.609,0.488,-9.766,8.301,58.594
1586550476.804,-448.242,1.465,-1.953,27.344,41.992
1586550476.808,-782.227,0.000,1.465,2.930,53.711
1586550476.812,-792.969,3.906,-1.465,-4.883,56.152
1586550476.816,-640.625,7.812,-0.488,28.809,-1.953
1586550476.820,-538.086,6.348,4.395,39.551,26.367
1586550476.824,-546.875,10.254,6.836,-11.230,47.363
1586550476.828,-474.609,13.184,9.277,-23.926,-37.109
1586550476.832,-334.961,11.230,9.766,8.789,-64.941
1586550476.836,-236.816,16.602,5.371,44.434,9.277
1586550476.840,-304.199,17.090,4.883,11.719,52.246
1586550476.844,-346.680,11.719,6.348,-13.672,73.730
1586550476.847,-244.141,13.672,3.906,8.789,29.297
1586550476.851,-147.461,13.184,5.371,36.133,47.363
1586550476.855,-194.336,11.719,4.883,16.113,62.988
1586550476.859,-258.789,12.695,6.348,-16.602,13.184
1586550476.863,-191.895,8.789,13.184,0.977,40.527
1586550476.867,-92.773,3.906,14.160,32.715,7.324
1586550476.871,-99.609,2.441,15.137,34.668,27.832
1586550476.875,-211.914,1.953,10.742,-6.348,22.949
1586550476.879,-175.293,1.465,6.836,-17.090,-3.906
1586550476.883,-44.434,6.836,8.789,5.859,24.902
1586550476.887,-6.836,13.184,9.766,32.227,19.531
1586550476.890,-100.098,11.719,10.742,-4.883,-1.465
1586550476.894,-153.320,5.859,10.254,-28.809,47.852
1586550476.898,-102.539,5.859,7.812,15.137,38.574
1586550476.902,-24.902,6.836,8.789,45.898,56.152
1586550476.906,-99.609,11.230,12.207,12.695,96.680
1586550476.910,-174.316,10.254,10.742,-8.789,33.203
1586550476.914,-101.562,4.395,10.254,17.578,57.617
1586550476.918,-9.277,5.371,7.812,38.086,36.621
1586550476.922,-51.758,8.789,0.977,20.020,3.418
1586550476.926,-128.418,6.836,1.465,-26.367,-15.137
1586550476.929,-83.496,7.324,1.465,-43.945,-44.922
1586550476.933,-8.789,5.371,1.465,3.906,15.137
1586550476.937,-15.625,5.371,-0.977,27.832,19.531
1586550476.941,-119.141,9.277,-1.465,-8.789,16.113
1586550476.945,-132.324,12.207,4.883,-13.184,31.250
1586550476.949,-123.047,13.672,3.906,10.254,35.156
1586550476.953,-184.570,13.184,3.906,34.668,27.344
1586550476.957,-320.312,11.719,4.883,-3.906,-23.926
1586550476.961,-369.141,10.254,4.395,-33.203,-3.418
1586550476.965,-319.336,5.371,5.859,5.371,26.855
1586550476.969,-383.789,-4.395,4.395,41.016,50.293
1586550476.972,-533.203,-1.953,-2.441,5.371,44.922
1586550476.976,-523.926,2.441,-6.836,-41.016,-34.668
1586550476.980,-428.711,0.977,-5.371,-21.484,44.434
1586550476.984,-293.457,2.930,-5.371,19.531,100.586
1586550476.988,-240.234,2.441,-4.883,4.395,62.988
1586550476.992,-306.152,-0.488,-4.883,-39.062,11.719
1586550476.996,-255.371,-1.953,-4.395,-23.926,-18.555
1586550477.000,-140.625,-1.465,-5.859,4.395,36.621
1586550477.004,-114.258,0.977,-10.742,-4.395,42.969
1586550477.008,-168.945,-1.465,-8.301,-28.320,17.578
1586550477.012,-153.320,-1.953,-7.812,-15.137,-0.977
1586550477.015,-38.086,-2.930,-9.766,5.859,-38.086
1586550477.019,29.785,-12.695,-7.812,11.230,-24.414
1586550477.023,-75.684,-16.602,-6.348,-24.414,-14.160
1586550477.027,-149.414,-6.836,-7.812,-45.898,-25.391
1586550477.031,-136.230,6.836,-7.324,-12.207,-9.766
1586550477.035,-111.816,5.859,-3.906,36.133,7.324
1586550477.039,-171.387,3.418,-6.836,6.348,-8.301
1586550477.043,-249.512,3.418,-7.812,-45.410,-2.930
1586550477.047,-219.727,2.441,-6.348,-28.320,50.781
1586550477.051,-137.207,-0.488,-5.371,10.254,51.270
1586550477.054,-125.977,-2.930,-4.883,-3.418,75.195
1586550477.058,-194.336,-2.930,-7.324,-46.875,94.727
1586550477.062,-145.508,-2.441,-12.695,-53.223,80.566
1586550477.066,-53.223,-7.812,-17.090,-2.930,84.961
1586550477.070,-49.316,-10.254,-12.207,42.480,73.242
1586550477.074,-125.000,-6.836,-12.695,-19.531,60.547
1586550477.078,-117.188,-3.906,-15.625,-61.035,46.387
1586550477.082,-15.137,-3.906,-11.719,-19.531,17.090
1586550477.086,46.387,-3.418,-10.742,18.555,42.969
1586550477.090,-25.391,-1.953,-15.625,-14.648,38.086
1586550477.094,-104.980,-6.348,-16.602,-42.480,0.488
1586550477.097,-45.410,-8.789,-11.230,-20.996,7.812
1586550477.101,45.898,-10.742,-11.230,-5.371,59.570
1586550477.105,-4.395,-15.137,-16.113,-22.461,69.336
1586550477.109,-77.148,-10.742,-18.066,-49.316,18.555
1586550477.113,-25.879,-9.277,-17.578,-38.086,-9.277
1586550477.117,56.641,-13.672,-15.137,4.883,33.203
1586550477.121,49.316,-13.184,-16.602,25.879,57.617
1586550477.125,-50.293,-8.301,-12.695,-2.441,24.414
1586550477.129,-70.801,-4.395,-14.160,-27.344,28.809
