timestamps,TP9,AF7,AF8,TP10,Right AUX
1586550590.726,80.078,31.738,33.691,59.570,-0.977
1586550590.730,-30.762,31.738,31.738,11.230,46.875
1586550590.734,-25.391,29.297,31.738,7.324,38.574
1586550590.738,64.941,29.297,31.250,49.805,43.457
1586550590.742,95.215,31.738,28.320,67.383,20.020
1586550590.746,4.395,35.156,25.879,30.762,10.254
1586550590.750,-13.672,33.203,29.785,7.812,30.762
1586550590.754,50.781,31.250,32.715,29.297,35.645
1586550590.758,102.539,29.785,34.180,58.105,13.184
1586550590.762,24.414,30.762,34.668,32.227,25.879
1586550590.765,-30.273,35.156,33.203,0.488,6.836
1586550590.769,36.621,34.180,30.762,17.090,-41.992
1586550590.773,117.188,33.203,28.809,64.453,1.465
1586550590.777,67.383,34.180,26.367,60.059,22.461
1586550590.781,-27.344,32.715,24.414,5.859,13.184
1586550590.785,3.418,31.250,27.832,5.859,83.984
1586550590.789,90.820,34.668,28.320,46.875,73.730
1586550590.793,85.449,33.691,27.344,47.852,7.812
1586550590.797,-12.695,29.785,29.297,4.395,35.156
1586550590.801,-2.441,30.762,26.367,4.395,44.922
1586550590.804,76.172,30.273,27.344,46.387,28.320
1586550590.808,100.586,28.809,27.832,68.359,15.625
1586550590.812,-2.930,30.762,28.320,30.762,-12.207
1586550590.816,-38.086,33.203,28.809,-0.977,18.066
1586550590.820,39.551,32.227,26.367,20.508,50.781
1586550590.824,109.375,33.691,26.855,54.199,32.715
1586550590.828,31.738,35.645,26.367,30.273,25.879
1586550590.832,-42.480,30.762,23.438,-7.812,91.309
1586550590.836,12.207,32.227,25.391,8.789,38.086
1586550590.840,94.727,32.715,29.297,51.758,-0.488
1586550590.844,59.570,33.203,31.250,48.340,83.496
1586550590.847,-27.832,39.551,29.785,12.695,60.059
1586550590.851,4.395,33.691,26.855,16.602,28.809
1586550590.855,96.191,25.879,28.320,54.199,8.789
1586550590.859,104.980,31.250,28.809,61.035,-31.250
1586550590.863,0.488,34.180,31.738,20.996,-37.109
1586550590.867,-5.371,31.738,32.715,11.230,-40.527
1586550590.871,67.383,30.762,28.809,41.504,-7.324
1586550590.875,103.027,33.203,30.273,62.988,31.738
1586550590.879,17.090,33.691,32.227,28.809,42.480
1586550590.883,-23.926,34.668,29.785,3.418,15.625
1586550590.887,39.551,37.598,32.227,21.484,6.348
1586550590.890,108.887,40.039,36.621,59.082,37.109
1586550590.894,34.180,36.133,36.621,41.016,58.594
1586550590.898,-48.340,30.762,32.227,-1.465,41.992
1586550590.902,2.930,28.320,33.691,6.836,48.828
1586550590.906,91.797,25.391,34.668,49.316,42.480
1586550590.910,68.848,29.297,33.691,52.246,44.922
1586550590.914,-28.320,32.715,34.180,7.324,88.379
1586550590.918,-13.672,29.785,33.203,-0.488,44.922
1586550590.922,67.871,28.809,26.855,31.250,-24.414
1586550590.926,91.309,27.344,27.832,57.129,6.348
1586550590.929,-11.719,29.297,32.227,22.949,62.500
1586550590.933,-26.855,34.668,26.367,-2.930,68.359
1586550590.937,53.223,34.180,25.391,23.438,55.664
1586550590.941,101.074,30.762,26.855,53.711,44.922
1586550590.945,18.066,30.273,27.832,27.832,1.953
1586550590.949,-39.551,34.180,28.320,-1.953,-12.207
1586550590.953,21.973,37.598,29.297,18.555,31.738
1586550590.957,100.098,37.109,32.227,58.105,83.008
1586550590.961,40.527,34.180,31.250,40.039,90.820
1586550590.965,-38.086,35.645,31.250,5.371,0.488
1586550590.969,7.324,34.668,26.855,8.301,-26.367
1586550590.972,91.797,35.645,25.879,40.527,17.578
1586550590.976,86.426,37.109,28.809,54.688,-1.465
1586550590.980,-16.602,33.203,25.391,10.254,7.812
1586550590.984,-18.066,36.133,23.926,-1.465,59.082
1586550590.988,67.871,36.133,28.320,38.574,47.363
1586550590.992,99.609,35.645,29.297,50.293,67.383
1586550590.996,10.254,37.598,28.320,5.371,59.082
1586550591.000,-13.184,36.621,28.809,-5.371,32.715
1586550591.004,46.387,32.227,29.785,28.809,38.574
1586550591.008,98.633,33.203,28.320,62.500,50.781
1586550591.012,21.973,36.133,29.785,39.551,27.832
1586550591.015,-36.133,32.227,31.738,14.160,47.852
1586550591.019,27.832,33.691,31.250,24.414,46.875
1586550591.023,118.164,36.133,29.785,52.246,28.320
1586550591.027,72.754,29.785,30.762,45.898,20.508
1586550591.031,-27.344,29.785,35.156,6.348,-5.371
1586550591.035,-0.977,38.574,33.691,5.859,-2.930
1586550591.039,83.008,39.062,34.668,46.875,-6.348
1586550591.043,85.449,39.062,38.086,66.406,-36.621
1586550591.047,-5.859,40.039,35.645,26.855,-24.902
1586550591.051,-2.930,36.133,35.156,13.184,0.000
1586550591.054,67.871,37.109,36.133,50.293,-58.105
1586550591.058,94.727,36.133,30.762,70.312,-10.742
1586550591.062,3.418,30.762,27.344,23.926,45.898
1586550591.066,-27.832,29.297,25.391,-6.348,35.156
1586550591.070,51.758,33.691,25.391,14.160,36.621
1586550591.074,117.676,33.691,28.809,52.246,18.066
1586550591.078,40.527,30.273,30.273,32.227,34.668
1586550591.082,-30.273,30.273,26.367,-5.371,23.438
1586550591.086,25.391,32.227,28.320,10.742,4.883
1586550591.090,108.887,34.668,30.273,49.316,34.180
1586550591.094,72.266,33.203,32.227,43.945,6.348
1586550591.097,-26.855,32.227,33.691,5.859,-25.391
1586550591.101,3.418,30.273,26.855,16.602,3.418
1586550591.105,90.820,30.762,27.344,53.223,-6.836
1586550591.109,94.727,34.180,33.203,59.570,36.621
1586550591.113,-1.953,29.785,36.133,21.484,72.266
1586550591.117,-8.301,30.762,34.668,7.812,14.160
1586550591.121,65.430,35.156,35.156,33.691,12.695
1586550591.125,103.516,32.715,38.086,51.758,46.387
1586550591.129,5.859,29.297,37.109,21.973,74.707
1586550591.133,-35.156,30.273,36.621,3.418,47.363
1586550591.137,34.668,26.855,36.621,21.484,5.859
1586550591.140,105.957,25.879,34.180,59.570,-3.906
1586550591.144,44.434,28.809,35.645,45.898,31.250
1586550591.148,-39.551,27.344,37.109,6.348,67.383
1586550591.152,4.395,27.832,34.180,11.719,17.578
1586550591.156,89.844,30.273,34.180,48.340,56.641
1586550591.160,80.078,32.715,33.203,50.293,96.191
1586550591.164,-18.555,28.320,34.668,8.301,43.945
1586550591.168,-12.695,26.367,37.109,15.137,-9.766
1586550591.172,77.148,26.855,33.203,53.711,33.691
1586550591.176,101.562,28.809,34.668,61.523,74.219
1586550591.179,3.418,31.738,37.598,21.484,33.691
1586550591.183,-14.160,31.738,32.715,-2.441,0.977
1586550591.187,57.129,31.738,35.156,26.855,14.648
1586550591.191,103.516,31.738,39.062,58.105,45.410
1586550591.195,13.184,29.785,38.574,32.227,43.457
1586550591.199,-44.922,28.320,37.109,4.883,20.996
1586550591.203,25.391,29.297,35.156,25.391,31.250
1586550591.207,110.352,30.273,32.715,62.988,69.824
1586550591.211,55.664,33.203,32.715,49.316,46.875
1586550591.215,-27.344,33.203,34.180,7.812,41.992
1586550591.219,11.719,31.250,32.227,9.277,39.551
1586550591.222,85.449,32.715,31.250,42.480,-24.902
1586550591.226,70.312,31.738,30.762,48.828,20.508
1586550591.230,-20.508,31.738,31.250,14.160,45.898
1586550591.234,-11.719,32.715,29.297,12.695,18.066
1586550591.238,70.312,29.785,28.320,50.293,36.621
1586550591.242,104.980,32.227,34.180,67.871,31.250
1586550591.246,9.766,38.086,37.109,24.902,-19.043
1586550591.250,-17.090,33.203,34.668,2.441,4.883
1586550591.254,55.176,30.762,32.227,29.785,9.766
1586550591.258,120.605,37.109,31.250,60.547,0.977
1586550591.262,45.898,39.062,33.203,29.785,32.227
1586550591.265,-21.973,36.133,33.691,-5.371,7.812
1586550591.269,25.391,34.668,27.832,13.184,6.348
1586550591.273,103.516,36.621,28.320,49.316,19.531
1586550591.277,61.523,36.621,29.785,44.434,34.668
1586550591.281,-30.273,37.598,29.297,6.836,34.180
1586550591.285,-2.441,38.574,35.156,5.859,19.043
1586550591.289,78.613,35.645,31.250,44.922,25.879
1586550591.293,79.102,33.691,27.344,55.176,38.574
1586550591.297,-19.531,35.156,28.809,13.184,38.574
1586550591.301,-10.254,34.668,30.273,7.812,49.316
1586550591.304,69.336,30.273,34.180,44.434,13.184
1586550591.308,95.215,30.762,34.668,59.570,13.672
1586550591.312,-3.906,31.250,34.180,17.578,41.016
1586550591.316,-39.551,29.785,32.715,0.488,27.344
1586550591.320,35.645,32.715,29.785,30.762,13.672
1586550591.324,105.957,33.203,31.250,62.988,50.293
1586550591.328,37.109,33.203,37.109,35.645,61.035
1586550591.332,-39.551,30.762,36.621,-1.953,20.020
1586550591.336,12.207,32.715,29.785,12.695,40.527
1586550591.340,101.562,31.250,29.785,59.082,43.945
1586550591.344,70.312,26.367,33.691,58.105,60.059
1586550591.347,-27.832,28.320,35.156,11.719,120.117
1586550591.351,-3.418,33.691,34.180,10.254,54.199
1586550591.355,82.520,36.133,32.227,42.969,0.977
1586550591.359,91.309,34.180,31.250,56.641,-10.742
1586550591.363,-10.742,36.133,31.738,19.531,27.344
1586550591.367,-21.484,35.645,30.762,0.488,54.688
1586550591.371,64.941,36.133,28.809,25.391,18.555
1586550591.375,114.746,38.086,28.320,59.570,39.551
1586550591.379,17.578,33.691,30.762,28.320,43.457
1586550591.383,-33.203,31.738,28.320,-3.906,41.504
1586550591.387,29.297,33.691,24.902,18.555,51.758
1586550591.390,98.633,31.250,28.320,57.617,22.949
1586550591.394,41.504,30.762,29.297,40.039,51.270
1586550591.398,-35.645,34.180,27.832,1.953,15.137
1586550591.402,8.301,33.691,28.809,16.602,-36.621
1586550591.406,87.402,30.762,29.785,57.617,-10.254
1586550591.410,66.895,31.250,33.203,58.105,1.953
1586550591.414,-32.715,30.273,30.273,6.348,-24.414
1586550591.418,-21.973,22.949,27.344,-5.371,-16.113
1586550591.422,67.871,17.578,28.809,31.738,34.180
1586550591.426,90.332,24.414,29.297,48.828,54.688
1586550591.429,-12.695,29.785,26.855,10.254,13.672
1586550591.433,-34.180,28.320,28.320,-4.883,45.410
1586550591.437,43.457,29.785,27.832,26.367,81.543
1586550591.441,98.633,32.227,28.809,59.082,72.754
1586550591.445,11.230,27.344,31.250,30.273,20.508
1586550591.449,-41.992,24.414,26.855,-1.953,-19.043
1586550591.453,23.926,24.902,27.832,12.207,-28.320
1586550591.457,99.609,25.879,30.273,48.340,22.949
1586550591.461,43.457,24.902,30.762,38.086,64.941
1586550591.465,-44.922,24.902,28.320,-1.953,14.160
1586550591.469,-3.418,27.344,24.414,9.277,-10.742
1586550591.472,89.355,27.832,28.320,48.828,20.020
1586550591.476,81.055,28.809,29.297,50.781,48.340
1586550591.480,-23.926,30.762,29.297,19.531,26.367
1586550591.484,-14.160,30.762,30.273,18.066,19.043
1586550591.488,73.730,30.762,29.785,40.527,4.395
1586550591.492,112.793,30.762,29.297,56.152,18.555
1586550591.496,16.113,31.738,31.250,21.973,34.180
1586550591.500,-22.461,30.273,32.227,11.719,7.324
1586550591.504,47.363,30.273,31.738,44.922,37.109
1586550591.508,112.793,28.320,31.250,56.152,56.152
1586550591.512,41.504,24.414,30.273,12.695,56.641
1586550591.515,-27.344,30.762,28.809,-16.113,58.594
1586550591.519,14.648,35.645,28.809,5.371,-0.977
1586550591.523,90.820,30.273,29.785,44.434,8.301
1586550591.527,58.105,30.273,26.855,37.598,11.230
1586550591.531,-30.762,32.227,26.367,4.395,-33.203
1586550591.535,1.465,33.203,30.273,10.254,-7.324
1586550591.539,82.520,32.227,30.762,36.133,61.523
1586550591.543,80.566,29.785,31.250,42.969,127.441
1586550591.547,-22.949,28.809,31.738,6.348,95.215
1586550591.551,-29.785,29.785,33.691,-0.488,-5.371
1586550591.554,53.711,28.320,33.691,36.621,59.570
1586550591.558,105.957,29.297,33.691,62.988,104.492
1586550591.562,11.230,31.738,36.133,23.438,55.176
1586550591.566,-35.645,29.785,34.668,-0.977,55.176
1586550591.570,33.691,31.738,29.297,19.043,22.461
1586550591.574,102.051,30.273,25.879,50.293,-31.738
1586550591.578,33.691,28.809,28.320,38.086,-31.738
1586550591.582,-43.457,30.762,34.668,7.812,21.484
1586550591.586,8.789,32.715,34.668,21.484,-4.395
1586550591.590,96.680,33.203,33.691,52.734,-29.297
1586550591.594,67.871,33.203,34.668,43.945,50.293
1586550591.597,-30.273,27.832,32.715,-3.906,24.414
1586550591.601,-9.766,26.855,33.691,-9.277,-20.508
1586550591.605,75.195,35.156,34.668,31.738,39.551
1586550591.609,91.797,36.133,34.180,49.805,10.254
1586550591.613,-3.418,39.551,36.133,17.090,10.254
1586550591.617,-20.020,38.086,32.715,4.883,47.852
1586550591.621,57.129,32.227,32.715,34.668,0.488
1586550591.625,115.234,32.715,32.227,63.965,-18.066
1586550591.629,30.762,32.715,31.250,32.715,19.043
1586550591.633,-19.043,31.250,35.645,7.812,9.277
1586550591.637,35.645,30.762,35.645,29.297,-1.465
1586550591.640,104.492,30.273,35.645,66.406,59.570
1586550591.644,60.547,29.297,36.621,45.410,19.043
1586550591.648,-20.996,29.785,35.156,5.371,8.789
1586550591.652,13.184,31.250,33.691,17.090,27.344
1586550591.656,88.867,31.250,31.250,48.340,62.988
1586550591.660,70.312,34.180,30.273,48.828,83.984
1586550591.664,-28.809,31.250,31.250,7.324,35.156
1586550591.668,-20.508,27.344,31.738,0.488,13.184
1586550591.672,63.477,27.344,33.203,38.574,25.879
1586550591.676,91.309,27.832,34.180,58.594,46.387
1586550591.679,-7.324,30.762,30.762,20.508,31.250
1586550591.683,-31.250,30.762,29.297,7.812,45.898
1586550591.687,43.945,30.273,31.250,39.062,66.895
1586550591.691,110.352,30.273,31.250,68.359,67.871
1586550591.695,37.598,32.715,31.738,37.109,27.344
1586550591.699,-24.902,31.738,34.668,-2.930,8.301
1586550591.703,36.621,30.273,32.715,14.648,56.152
1586550591.707,119.141,33.691,31.250,63.965,43.457
1586550591.711,69.824,30.273,34.668,53.711,-4.395
1586550591.715,-24.414,29.785,33.691,8.301,29.297
1586550591.719,0.977,25.391,32.227,12.695,36.133
1586550591.722,81.543,23.926,29.297,52.246,16.602
1586550591.726,73.730,31.738,33.691,57.617,25.391
1586550591.730,-27.832,32.227,37.598,13.672,-8.301
1586550591.734,-22.949,32.715,32.715,3.906,-27.832
1586550591.738,56.152,35.645,31.738,41.016,-7.812
1586550591.742,96.680,38.086,31.250,64.941,12.695
1586550591.746,3.418,34.668,29.785,20.508,41.504
1586550591.750,-29.785,32.227,31.738,-6.348,12.695
1586550591.754,39.551,33.691,30.762,19.043,-13.672
1586550591.758,99.121,33.203,30.762,50.781,70.801
1586550591.762,36.133,33.691,34.180,29.785,71.777
1586550591.765,-32.715,33.203,34.668,-2.441,15.137
1586550591.769,17.578,32.227,33.203,17.578,-7.324
1586550591.773,105.469,32.227,34.668,62.500,10.742
1586550591.777,67.383,30.762,37.598,52.734,70.312
1586550591.781,-26.855,31.738,38.086,2.441,85.449
1586550591.785,0.000,33.691,38.086,1.953,53.711
1586550591.789,79.590,31.738,40.039,45.898,39.062
1586550591.793,86.426,29.297,39.062,60.059,35.156
1586550591.797,-14.648,27.832,38.086,16.602,18.555
1586550591.801,-25.391,27.832,36.133,3.418,30.273
1586550591.804,62.988,30.273,34.180,36.621,36.621
1586550591.808,105.957,33.691,30.762,59.570,29.785
1586550591.812,6.348,33.691,30.273,20.020,34.180
1586550591.816,-36.133,29.297,30.762,-5.859,56.152
1586550591.820,31.738,30.273,31.250,14.160,64.453
1586550591.824,105.469,29.785,32.227,51.270,72.266
1586550591.828,45.898,27.344,30.762,40.527,42.480
1586550591.832,-35.645,31.250,27.832,-4.395,44.434
1586550591.836,4.395,31.738,23.438,0.000,17.090
1586550591.840,92.285,27.832,25.879,41.016,47.852
1586550591.844,69.824,27.832,29.297,34.180,60.547
1586550591.847,-31.250,25.879,32.227,-8.789,11.719
1586550591.851,-9.766,28.320,32.227,-2.930,11.719
1586550591.855,71.777,34.180,29.785,33.691,9.277
1586550591.859,88.867,35.645,30.273,52.246,34.180
1586550591.863,-5.371,32.227,32.715,14.648,30.273
1586550591.867,-21.973,30.762,29.297,-5.859,-2.930
1586550591.871,52.246,31.738,26.367,23.926,-36.621
1586550591.875,107.910,31.738,31.738,54.688,19.043
1586550591.879,19.531,31.250,28.320,23.438,0.000
1586550591.883,-40.039,30.762,27.832,-7.812,2.930
1586550591.887,26.367,33.203,32.715,13.672,48.828
1586550591.890,102.539,31.738,34.180,50.293,58.594
1586550591.894,45.410,27.832,32.715,33.203,71.289
1586550591.898,-36.133,27.832,31.250,-7.324,9.766
1586550591.902,-4.883,29.297,28.809,-1.465,88.379
1586550591.906,76.172,30.762,24.902,40.039,84.473
1586550591.910,77.148,33.203,28.320,50.293,13.184
1586550591.914,-22.461,33.691,31.250,7.812,26.855
1586550591.918,-19.531,33.203,31.738,5.859,47.852
1586550591.922,68.359,32.227,30.762,38.574,74.219
1586550591.926,96.680,33.691,28.320,50.781,49.805
1586550591.929,-3.418,29.297,33.691,22.461,52.246
1586550591.933,-32.227,21.973,38.086,4.883,33.203
1586550591.937,40.039,30.273,36.133,23.926,3.906
1586550591.941,98.145,39.062,34.180,56.641,78.125
1586550591.945,24.414,36.621,35.156,34.180,87.891
1586550591.949,-33.691,32.715,25.879,0.000,46.875
1586550591.953,21.973,34.180,23.926,10.742,-38.574
1586550591.957,104.004,32.715,33.203,53.711,-43.945
1586550591.961,65.430,31.250,37.109,49.805,62.500
1586550591.965,-33.203,31.250,38.086,5.371,41.016
1586550591.969,0.000,30.762,36.133,8.301,43.945
1586550591.972,88.867,29.297,31.250,44.922,49.805
1586550591.976,86.914,27.832,30.762,54.688,-0.488
1586550591.980,-11.719,27.344,36.133,16.602,41.016
1586550591.984,-11.230,29.297,35.156,1.953,51.270
1586550591.988,66.895,32.227,33.691,42.969,-9.277
1586550591.992,100.098,30.273,32.227,79.102,1.953
1586550591.996,6.836,33.203,28.320,28.809,-9.277
1586550592.000,-27.832,33.203,29.297,-5.371,16.602
1586550592.004,40.039,30.762,32.715,19.531,4.395
1586550592.008,109.375,32.227,34.180,56.152,-16.602
1586550592.012,50.293,28.320,35.645,37.109,19.531
1586550592.015,-26.855,26.855,32.227,1.465,12.695
1586550592.019,19.043,28.320,31.738,16.602,19.043
1586550592.023,106.445,30.762,32.227,55.176,38.574
1586550592.027,70.801,35.645,34.180,50.781,11.719
1586550592.031,-34.180,31.738,38.086,-0.977,25.391
1586550592.035,-9.766,29.297,35.156,-4.883,58.105
1586550592.039,81.543,32.715,31.250,37.109,49.316
1586550592.043,92.773,32.715,34.180,56.641,15.625
1586550592.047,-15.625,32.227,34.180,23.926,-9.766
1586550592.051,-27.344,31.738,30.273,5.371,-10.254
1586550592.054,54.688,33.203,29.785,35.645,-38.574
1586550592.058,104.980,32.715,31.250,67.871,6.836
1586550592.062,15.625,32.715,34.180,37.109,52.734
1586550592.066,-33.203,35.645,31.738,7.324,30.762
1586550592.070,32.227,34.668,30.273,20.996,41.992
1586550592.074,103.516,29.785,34.180,52.246,51.270
1586550592.078,50.293,29.785,32.715,41.992,83.984
1586550592.082,-31.250,31.738,34.180,13.184,88.867
1586550592.086,17.090,31.738,32.227,26.855,43.945
1586550592.090,100.586,31.250,31.250,61.523,6.348
1586550592.094,74.219,30.762,35.645,57.129,31.738
1586550592.097,-13.184,31.738,38.086,10.742,55.176
1586550592.101,1.953,34.180,37.109,-0.977,40.039
1586550592.105,76.660,32.227,35.156,32.715,42.480
1586550592.109,91.797,31.738,34.668,55.664,26.855
1586550592.113,-4.395,30.273,31.738,17.090,6.836
1586550592.117,-18.066,30.762,30.762,2.441,-20.508
1586550592.121,49.805,35.156,32.715,29.297,36.621
1586550592.125,102.539,33.691,32.227,53.223,33.691
1586550592.129,27.344,28.809,33.691,25.879,9.766
1586550592.133,-28.809,28.809,31.738,-2.930,17.090
1586550592.137,18.555,32.715,30.273,12.207,47.363
1586550592.140,87.891,31.738,33.203,53.223,52.246
1586550592.144,49.316,31.250,32.227,44.922,-6.348
1586550592.148,-39.062,32.715,30.762,0.488,-2.930
1586550592.152,0.000,32.227,33.691,12.695,7.324
1586550592.156,89.355,31.250,34.668,52.246,111.816
1586550592.160,84.961,32.715,35.156,59.570,120.117
1586550592.164,-12.695,31.250,34.180,24.902,24.902
1586550592.168,-19.531,29.785,30.273,18.555,37.109
1586550592.172,63.965,28.809,28.320,44.922,23.438
1586550592.176,96.191,23.926,27.344,62.012,16.113
1586550592.179,-4.395,25.879,31.738,30.273,24.902
1586550592.183,-35.645,31.250,30.762,-0.977,65.918
1586550592.187,41.016,28.809,28.809,22.949,52.246
1586550592.191,109.375,27.832,27.832,60.547,-14.160
1586550592.195,30.273,31.250,27.344,37.598,1.953
1586550592.199,-37.109,25.879,26.367,0.977,51.758
1586550592.203,20.020,26.855,27.344,12.207,56.641
1586550592.207,98.145,32.715,32.715,52.246,92.285
1586550592.211,59.570,32.227,35.156,50.781,81.055
1586550592.215,-32.227,34.180,30.762,16.113,56.152
1586550592.219,-5.859,32.227,28.320,19.531,62.988
1586550592.222,74.707,29.785,29.785,43.457,54.688
1586550592.226,85.938,36.133,28.320,50.781,43.457
1586550592.230,-5.859,33.203,29.297,20.020,51.758
1586550592.234,-7.812,28.809,31.738,11.230,27.344
1586550592.238,71.289,32.227,29.297,36.133,7.812
1586550592.242,111.328,30.273,28.320,45.898,43.945
1586550592.246,13.184,31.250,28.320,11.719,33.203
1586550592.250,-30.273,35.645,27.344,-7.812,-33.203
1586550592.254,38.574,36.133,30.762,20.508,-28.809
1586550592.258,103.516,37.109,32.227,62.500,36.621
1586550592.262,35.645,37.598,30.273,36.621,39.062
1586550592.265,-43.945,28.809,30.273,-2.930,36.133
1586550592.269,10.742,22.461,30.273,11.230,52.734
1586550592.273,102.051,28.320,30.273,49.805,14.160
1586550592.277,69.336,29.785,30.762,45.898,8.789
1586550592.281,-36.133,29.785,31.250,3.418,29.297
1586550592.285,-22.949,28.809,32.227,2.441,-17.578
1586550592.289,70.312,26.367,34.180,39.551,-10.254
1586550592.293,94.727,27.832,32.227,61.035,60.547
1586550592.297,-8.301,30.273,34.180,25.391,50.781
1586550592.301,-24.414,30.273,31.738,9.766,41.992
1586550592.304,40.527,27.344,29.785,34.180,19.043
1586550592.308,88.379,25.879,32.227,64.453,34.668
1586550592.312,11.719,27.832,30.762,39.551,90.332
1586550592.316,-38.574,25.879,34.668,5.859,28.320
1586550592.320,28.809,25.879,35.156,19.043,-20.508
1586550592.324,103.516,30.273,29.785,56.641,8.789
1586550592.328,45.410,31.738,30.762,34.668,20.508
1586550592.332,-35.156,28.809,32.715,-15.137,2.441
1586550592.336,9.277,26.855,31.250,0.488,23.438
1586550592.340,89.355,29.297,29.297,48.828,75.195
1586550592.344,77.148,35.156,32.227,56.152,52.246
1586550592.347,-20.508,34.180,32.227,13.672,2.441
1586550592.351,-18.555,32.227,27.832,8.789,-36.621
1586550592.355,70.312,34.180,27.344,41.992,0.000
1586550592.359,95.703,30.273,27.832,51.270,25.879
1586550592.363,-5.371,27.344,27.832,12.207,-5.371
1586550592.367,-34.180,28.809,28.809,-4.883,-12.695
1586550592.371,42.969,27.344,30.273,24.902,13.672
1586550592.375,109.863,23.438,32.715,62.012,32.715
1586550592.379,32.715,27.832,34.668,34.180,-1.953
1586550592.383,-33.691,30.762,33.203,-4.395,8.789
1586550592.387,10.254,29.297,31.250,10.742,13.184
1586550592.390,89.844,31.738,31.738,50.293,0.977
1586550592.394,48.828,28.809,33.203,37.109,36.621
1586550592.398,-46.387,28.809,30.762,-5.859,65.918
1586550592.402,-13.672,27.832,29.785,-1.465,45.410
1586550592.406,69.336,23.926,30.762,36.621,-19.043
1586550592.410,69.824,25.879,30.273,54.199,6.348
1586550592.414,-19.043,26.367,29.297,20.020,57.617
1586550592.418,-15.137,27.832,32.227,0.977,61.035
1586550592.422,67.871,30.273,36.621,33.691,71.777
1586550592.426,101.562,30.273,36.621,61.035,51.270
1586550592.429,-0.977,27.832,33.203,26.855,63.477
1586550592.433,-32.715,26.855,31.250,7.812,44.922
1586550592.437,42.480,25.879,30.762,34.668,30.762
1586550592.441,111.328,26.367,29.297,63.477,66.895
1586550592.445,45.410,29.785,32.715,32.227,43.457
1586550592.449,-40.039,30.273,32.715,-8.301,8.301
1586550592.453,-0.488,27.832,32.715,12.207,-6.836
1586550592.457,93.750,26.855,34.180,47.852,77.637
1586550592.461,53.711,27.832,32.715,40.527,120.117
1586550592.465,-51.270,27.832,32.715,2.930,31.738
1586550592.469,-13.672,31.738,28.320,1.465,14.160
1586550592.472,77.637,33.203,27.344,37.109,25.879
1586550592.476,87.891,33.203,28.809,47.363,38.574
1586550592.480,-8.789,32.715,30.273,9.766,104.004
1586550592.484,-16.602,31.738,32.227,-1.953,107.422
1586550592.488,61.035,33.203,28.320,32.715,62.500
1586550592.492,106.445,33.203,27.344,63.477,41.016
1586550592.496,18.555,30.273,31.250,35.156,81.543
1586550592.500,-23.438,29.785,31.250,6.836,42.969
1586550592.504,42.969,35.645,30.273,16.602,-25.391
1586550592.508,108.887,40.039,30.273,51.758,7.812
1586550592.512,46.387,37.109,28.809,41.504,50.781
1586550592.515,-33.203,32.715,30.762,0.000,52.734
1586550592.519,14.648,33.203,33.203,6.836,55.176
1586550592.523,96.680,31.250,31.250,55.176,42.480
1586550592.527,62.500,25.879,32.227,59.082,3.906
1586550592.531,-33.691,26.367,35.645,14.648,18.066
1586550592.535,-9.277,33.203,33.203,6.348,37.109
1586550592.539,71.777,32.227,30.762,40.039,16.113
1586550592.543,87.891,27.832,31.738,56.641,0.977
1586550592.547,-11.719,27.344,33.203,13.184,33.691
1586550592.551,-31.738,25.391,32.715,-1.953,9.277
1586550592.554,41.992,25.391,30.762,31.738,-2.930
1586550592.558,92.285,29.785,30.762,58.594,40.039
1586550592.562,2.441,31.738,31.250,22.949,21.484
1586550592.566,-42.480,29.785,28.809,-10.742,18.555
1586550592.570,30.762,28.809,28.320,10.742,-58.105
1586550592.574,105.469,29.785,31.250,51.270,-48.828
1586550592.578,46.387,31.250,34.668,41.016,17.090
1586550592.582,-41.016,31.250,32.715,2.441,12.695
1586550592.586,2.441,31.738,30.762,9.766,74.707
1586550592.590,92.773,32.227,28.320,51.758,48.828
1586550592.594,83.496,31.738,29.785,52.734,13.184
1586550592.597,-13.184,33.203,35.156,10.742,64.453
1586550592.601,-6.348,31.250,29.785,4.883,113.770
1586550592.605,69.824,30.762,26.367,40.527,83.496
1586550592.609,97.656,31.250,30.762,65.918,29.785
1586550592.613,-0.488,29.785,30.762,22.949,27.344
1586550592.617,-30.762,30.762,28.809,-2.441,64.453
1586550592.621,46.875,28.320,26.855,26.367,33.203
1586550592.625,108.398,28.809,25.879,52.734,35.156
1586550592.629,35.156,32.715,27.344,28.320,42.969
1586550592.633,-27.344,30.762,29.297,1.465,26.367
1586550592.637,18.555,29.785,28.809,13.184,18.555
1586550592.640,91.309,29.785,29.785,52.246,-29.297
1586550592.644,51.758,29.297,30.273,43.945,7.324
1586550592.648,-30.273,30.273,31.250,1.465,66.406
1586550592.652,4.395,32.227,31.250,3.418,11.719
1586550592.656,90.820,33.203,27.344,39.551,-11.719
1586550592.660,98.145,32.227,27.832,49.805,67.871
1586550592.664,-9.766,31.250,30.762,6.348,85.449
1586550592.668,-22.949,30.762,28.320,-4.395,-16.113
1586550592.672,58.105,30.762,28.809,34.668,-16.602
1586550592.676,93.750,26.855,29.785,55.176,82.031
1586550592.679,5.371,26.367,30.762,18.555,60.547
1586550592.683,-23.926,31.738,32.227,2.441,68.848
1586550592.687,42.969,33.691,27.344,19.531,49.805
1586550592.691,107.910,34.668,25.391,46.875,4.395
1586550592.695,32.227,37.109,27.832,28.809,32.227
1586550592.699,-42.969,34.668,28.320,-4.883,24.902
1586550592.703,8.789,29.785,28.320,13.672,35.156
1586550592.707,93.750,32.227,30.273,50.781,95.703
1586550592.711,65.430,34.668,31.250,40.039,99.121
1586550592.715,-26.855,33.203,30.762,-6.348,31.738
1586550592.719,0.977,32.227,30.273,-7.812,40.527
1586550592.722,85.449,29.297,27.832,37.598,32.715
1586550592.726,90.820,31.250,29.297,52.734,34.668
1586550592.730,-10.742,36.621,30.273,11.719,38.574
1586550592.734,-18.555,33.203,31.250,1.465,24.902
1586550592.738,61.035,33.203,30.762,30.762,77.637
1586550592.742,111.328,37.598,30.762,60.059,78.125
1586550592.746,22.949,36.621,31.738,34.668,43.457
1586550592.750,-19.531,37.598,31.250,7.324,3.906
1586550592.754,49.805,41.016,27.344,20.996,-7.812
1586550592.758,114.258,37.598,26.855,58.105,46.875
1586550592.762,47.852,33.203,30.762,47.852,83.496
1586550592.765,-33.203,34.180,30.762,11.230,55.664
1586550592.769,10.742,32.715,30.273,17.578,48.828
1586550592.773,95.215,28.809,28.320,47.852,20.508
1586550592.777,78.613,32.715,27.832,53.223,-45.410
1586550592.781,-21.973,33.203,30.273,18.555,-3.418
1586550592.785,-11.230,28.809,31.250,9.277,-21.973
1586550592.789,75.684,30.273,25.391,40.039,-28.320
1586550592.793,96.191,30.762,20.996,55.176,44.434
1586550592.797,0.000,30.273,24.902,18.066,16.113
1586550592.801,-12.695,29.785,29.297,9.766,74.707
1586550592.804,63.965,25.391,28.809,38.086,64.941
1586550592.808,114.746,26.855,28.320,62.988,18.555
1586550592.812,33.691,31.250,31.250,33.203,58.105
1586550592.816,-23.926,32.715,27.832,-1.953,33.203
1586550592.820,29.785,32.715,24.902,20.508,15.625
1586550592.824,96.191,32.227,29.785,60.547,49.316
1586550592.828,44.434,30.762,31.738,44.434,15.137
1586550592.832,-33.691,27.832,32.227,2.441,-6.836
1586550592.836,7.324,28.320,28.320,12.207,6.836
1586550592.840,100.586,32.715,28.320,61.035,-2.441
1586550592.844,85.449,30.273,32.715,64.453,-74.707
1586550592.847,-27.344,28.320,28.809,12.695,-36.621
1586550592.851,-23.926,26.855,29.785,4.395,41.992
1586550592.855,61.523,28.320,32.715,37.598,39.551
1586550592.859,97.656,27.344,32.227,58.594,2.930
1586550592.863,-1.953,23.926,31.738,21.484,-11.230
1586550592.867,-29.785,28.809,33.691,4.883,56.641
1586550592.871,45.410,29.785,32.715,35.645,51.758
1586550592.875,105.469,29.297,28.809,57.129,30.273
1586550592.879,35.156,30.762,27.832,31.250,39.551
1586550592.883,-29.297,27.832,27.832,4.395,3.418
1586550592.887,16.113,26.367,27.344,16.113,-34.180
1586550592.890,92.285,25.879,27.832,53.223,-27.832
1586550592.894,53.223,28.320,25.879,42.480,-26.367
1586550592.898,-41.504,29.297,28.809,-1.953,-16.113
1586550592.902,-5.371,29.297,29.785,5.859,33.203
1586550592.906,91.309,33.203,30.273,51.758,25.879
1586550592.910,81.055,34.668,30.762,60.059,-1.465
1586550592.914,-34.180,29.785,29.785,10.742,-16.602
1586550592.918,-28.809,28.809,30.762,3.418,0.488
1586550592.922,58.105,30.273,30.762,33.203,2.930
1586550592.926,104.492,28.320,30.273,48.828,10.254
1586550592.929,19.043,28.320,33.691,16.602,30.273
1586550592.933,-30.273,24.902,35.156,-5.371,36.621
1586550592.937,27.344,24.414,34.180,17.090,20.020
1586550592.941,94.727,27.344,29.297,55.176,9.277
1586550592.945,34.180,28.809,31.250,39.062,23.438
1586550592.949,-33.203,28.809,33.691,15.137,-15.625
1586550592.953,19.531,31.250,32.227,32.227,-10.742
1586550592.957,104.980,34.668,31.250,58.594,31.738
1586550592.961,70.801,32.715,33.203,50.781,3.418
1586550592.965,-35.645,28.320,34.668,4.883,-2.930
1586550592.969,-22.949,25.879,31.738,-1.465,26.367
1586550592.972,62.988,29.785,31.250,35.645,9.277
1586550592.976,75.684,30.762,29.297,44.922,41.992
1586550592.980,-25.879,33.203,29.785,1.465,64.453
1586550592.984,-29.297,32.715,31.738,-2.930,34.180
1586550592.988,48.340,27.832,30.762,38.086,21.973
1586550592.992,94.238,30.762,28.809,62.500,-3.906
1586550592.996,12.207,32.227,32.227,28.320,-4.395
1586550593.000,-37.109,32.227,31.738,3.418,63.477
1586550593.004,28.809,27.832,28.809,25.879,62.012
1586550593.008,108.887,29.297,29.297,62.988,25.391
1586550593.012,59.570,33.691,30.273,43.945,-2.930
1586550593.015,-20.020,30.273,34.180,3.906,-7.324
1586550593.019,21.484,31.738,35.645,17.578,30.273
1586550593.023,104.492,31.738,32.715,53.223,35.156
1586550593.027,85.938,32.227,31.250,56.641,27.344
1586550593.031,-15.137,33.691,30.762,15.625,50.293
1586550593.035,-6.836,30.273,29.785,4.395,73.242
1586550593.039,77.148,30.273,30.273,40.527,121.094
1586550593.043,103.027,31.738,33.203,55.664,91.797
1586550593.047,-5.859,30.273,30.762,16.602,7.324
1586550593.051,-36.133,28.320,27.832,0.977,26.367
1586550593.054,41.992,28.809,30.273,25.391,64.941
1586550593.058,99.121,29.297,31.250,58.594,42.969
1586550593.062,30.762,32.715,34.180,37.109,-1.953
1586550593.066,-25.391,32.715,34.180,4.395,53.223
1586550593.070,27.344,32.227,32.715,20.508,47.852
1586550593.074,101.074,32.715,32.715,62.988,39.062
1586550593.078,54.688,33.203,34.668,52.246,31.738
1586550593.082,-34.180,33.203,35.645,6.348,29.785
1586550593.086,-0.488,27.832,32.227,6.836,58.105
1586550593.090,83.496,26.855,29.785,43.945,19.531
1586550593.094,79.590,27.832,31.738,52.246,-5.859
1586550593.097,-21.484,26.855,32.227,9.766,-3.418
1586550593.101,-21.973,27.832,28.320,-0.488,9.766
1586550593.105,62.988,28.809,26.855,35.156,4.883
1586550593.109,107.422,24.902,26.855,60.547,47.363
1586550593.113,21.484,24.414,30.762,26.855,78.613
1586550593.117,-14.648,28.320,33.691,6.836,40.527
1586550593.121,51.270,29.785,32.227,25.391,21.973
1586550593.125,98.633,31.738,33.691,55.664,27.832
1586550593.129,21.484,31.738,37.109,42.480,32.715
1586550593.133,-34.668,31.250,35.156,10.254,-17.578
1586550593.137,13.672,29.785,32.227,20.996,-43.457
1586550593.140,90.820,28.320,31.250,55.176,-18.066
1586550593.144,59.082,31.250,32.715,42.969,29.785
1586550593.148,-25.391,31.738,34.668,-1.465,37.109
1586550593.152,6.836,29.785,33.203,2.441,19.043
1586550593.156,93.750,30.762,31.738,40.039,34.180
1586550593.160,101.562,32.715,34.668,54.199,84.473
1586550593.164,-7.812,28.809,36.621,16.602,67.383
1586550593.168,-25.879,28.320,30.762,-6.836,-20.508
1586550593.172,54.688,31.250,27.832,18.066,8.789
1586550593.176,97.656,31.738,31.250,52.246,38.574
1586550593.179,0.488,30.273,33.203,24.902,21.484
1586550593.183,-42.480,26.855,34.180,0.000,4.883
1586550593.187,28.320,28.320,30.762,19.531,-8.789
1586550593.191,106.445,29.297,28.320,52.246,34.668
1586550593.195,41.992,28.320,30.273,33.691,60.059
1586550593.199,-41.504,29.785,28.809,0.488,43.945
1586550593.203,7.324,30.762,26.367,24.414,47.852
1586550593.207,93.262,30.273,29.785,64.453,62.988
1586550593.211,73.242,29.785,32.715,53.711,85.449
1586550593.215,-24.902,30.273,32.227,10.742,22.949
1586550593.219,-13.672,27.832,29.297,4.883,3.906
1586550593.222,70.801,25.879,26.367,34.668,21.484
1586550593.226,98.145,28.320,26.367,48.340,5.859
1586550593.230,4.395,28.320,30.762,7.324,-21.484
1586550593.234,-7.324,24.902,30.762,-13.184,-28.320
1586550593.238,59.082,24.902,31.738,12.695,-17.578
1586550593.242,98.633,29.785,34.668,45.410,-15.137
1586550593.246,15.137,31.250,34.668,19.043,-14.648
1586550593.250,-44.922,29.297,33.691,-8.789,-2.930
1586550593.254,17.578,28.809,32.715,14.160,65.430
1586550593.258,89.844,26.855,35.156,53.711,107.910
1586550593.262,25.391,27.832,34.668,43.457,73.242
1586550593.265,-62.012,27.344,33.691,8.789,60.059
1586550593.269,-22.461,27.832,32.715,17.090,35.645
1586550593.273,73.242,28.809,30.762,52.246,0.000
1586550593.277,68.848,30.762,31.250,48.828,4.395
1586550593.281,-27.344,33.691,33.203,3.906,13.672
1586550593.285,-12.207,31.250,32.715,2.441,26.855
1586550593.289,76.172,29.785,32.227,36.133,22.949
1586550593.293,105.469,29.785,32.227,55.176,54.199
1586550593.297,6.348,29.297,29.297,17.090,56.152
1586550593.301,-16.602,27.344,32.227,-3.418,5.859
1586550593.304,60.547,27.832,34.668,28.320,26.855
1586550593.308,116.211,28.320,34.180,64.941,36.621
1586550593.312,29.785,28.809,35.156,32.227,36.133
1586550593.316,-39.551,28.809,32.715,-2.441,35.645
1586550593.320,17.090,29.297,33.691,13.672,61.523
1586550593.324,102.539,32.715,37.109,53.223,102.539
1586550593.328,61.035,33.691,37.109,47.852,108.398
1586550593.332,-28.320,33.203,34.180,2.441,74.707
1586550593.336,-1.953,31.250,29.297,6.348,42.969
1586550593.340,86.914,31.250,26.855,53.223,-6.348
1586550593.344,93.750,34.668,27.832,59.082,-9.766
1586550593.347,-9.766,34.180,31.250,14.160,0.977
1586550593.351,-6.836,31.250,30.762,11.230,-9.766
1586550593.355,72.266,29.297,31.250,47.363,26.855
1586550593.359,101.074,30.273,33.691,63.477,24.414
1586550593.363,2.930,30.273,32.715,19.043,23.926
1586550593.367,-36.133,26.855,31.738,-4.883,61.523
1586550593.371,31.738,27.832,28.809,20.020,27.832
1586550593.375,90.820,28.320,29.785,56.641,61.523
1586550593.379,21.973,27.344,34.668,43.945,103.027
1586550593.383,-35.156,29.785,33.691,6.836,28.809
1586550593.387,17.090,29.785,33.203,12.207,-22.461
1586550593.390,100.098,28.320,31.250,48.340,33.691
1586550593.394,72.266,28.320,30.762,40.039,48.340
1586550593.398,-32.715,29.297,31.738,-0.977,14.160
1586550593.402,-14.648,31.250,31.738,10.742,23.926
1586550593.406,65.918,31.738,33.691,51.270,-11.230
1586550593.410,72.754,30.762,33.203,65.430,10.254
1586550593.414,-16.602,32.227,29.785,20.508,6.836
1586550593.418,-24.414,32.715,30.273,-4.395,0.000
1586550593.422,51.758,34.180,32.715,27.832,50.293
1586550593.426,101.562,37.598,32.715,57.617,20.508
1586550593.429,12.207,38.574,32.227,18.555,25.391
1586550593.433,-36.621,38.086,34.180,-8.301,74.219
1586550593.437,33.691,38.086,36.621,23.438,64.453
1586550593.441,108.887,37.109,35.645,60.547,76.172
1586550593.445,45.410,36.133,34.668,43.945,5.859
1586550593.449,-28.320,35.645,34.668,1.465,-36.133
1586550593.453,12.207,34.180,32.227,4.395,39.551
1586550593.457,93.750,34.180,33.203,50.293,39.062
1586550593.461,74.219,34.180,34.668,47.852,-13.672
1586550593.465,-28.809,32.227,29.785,-5.371,50.781
1586550593.469,-10.254,34.180,27.344,-3.418,69.824
1586550593.472,77.637,28.809,27.344,34.668,14.160
1586550593.476,100.586,25.879,27.344,57.129,23.438
1586550593.480,-2.441,31.738,31.250,33.691,15.625
1586550593.484,-31.250,32.715,31.250,10.742,33.203
1586550593.488,43.457,30.762,29.785,27.832,49.316
1586550593.492,94.238,27.344,32.715,58.594,49.805
1586550593.496,11.230,31.250,32.715,36.621,72.754
1586550593.500,-34.668,34.668,30.762,10.742,81.543
1586550593.504,34.180,31.738,28.809,21.484,21.973
1586550593.508,109.375,32.715,28.809,52.734,24.902
1586550593.512,53.223,32.227,29.297,39.062,57.617
1586550593.515,-36.133,30.273,29.297,-8.301,-5.371
1586550593.519,5.859,32.715,30.273,-7.812,-25.879
1586550593.523,96.680,31.738,29.785,33.691,-46.387
1586550593.527,79.102,31.738,29.785,38.086,-0.488
1586550593.531,-27.344,32.227,28.320,-0.488,20.020
1586550593.535,-25.391,30.762,29.297,5.859,16.602
1586550593.539,55.664,30.762,27.344,41.016,55.176
1586550593.543,94.727,32.227,27.344,55.664,1.953
1586550593.547,2.441,32.227,31.250,14.160,27.832
1586550593.551,-28.809,32.715,31.738,-4.395,90.820
1586550593.554,41.992,34.180,30.762,25.879,73.730
1586550593.558,107.422,32.227,28.809,60.547,22.949
1586550593.562,31.738,34.180,28.809,36.133,41.992
1586550593.566,-36.621,34.180,31.738,-4.395,56.152
1586550593.570,20.020,32.715,32.227,10.742,16.113
1586550593.574,91.797,34.668,31.738,55.176,74.219
1586550593.578,50.293,35.156,34.668,51.270,88.867
1586550593.582,-33.691,31.738,34.668,12.695,31.250
1586550593.586,-4.395,30.273,31.250,15.625,-19.531
1586550593.590,83.984,30.273,31.738,55.176,-20.996
1586550593.594,87.402,31.738,33.691,60.547,17.090
1586550593.597,-12.207,33.691,32.715,10.742,13.184
1586550593.601,-14.648,33.691,31.738,-0.488,-39.062
1586550593.605,66.406,34.180,29.297,34.180,-18.066
1586550593.609,109.863,33.691,28.809,66.895,55.176
1586550593.613,20.996,33.203,31.738,41.504,-6.836
1586550593.617,-27.832,33.691,30.762,12.695,-40.527
1586550593.621,34.668,32.715,31.738,34.668,-18.555
1586550593.625,107.910,32.715,31.250,63.477,5.371
1586550593.629,34.180,33.203,30.762,37.109,38.574
1586550593.633,-39.551,32.227,33.691,4.395,40.527
1586550593.637,14.160,33.203,31.738,22.949,-14.160
1586550593.640,103.516,37.109,32.227,64.941,19.043
1586550593.644,78.125,37.598,32.715,53.223,48.828
1586550593.648,-23.438,33.203,33.691,0.977,33.691
1586550593.652,0.488,32.715,31.250,2.930,73.730
1586550593.656,86.914,34.180,28.809,45.898,76.172
1586550593.660,91.797,31.738,31.250,62.988,73.730
1586550593.664,-6.836,33.691,30.762,20.508,18.066
1586550593.668,-20.996,37.109,32.227,-1.953,-19.043
1586550593.672,46.387,31.250,27.832,20.020,2.441
1586550593.676,93.750,27.344,24.414,54.199,16.602
1586550593.679,10.254,28.320,27.832,27.344,19.043
1586550593.683,-38.574,27.832,31.250,0.977,29.785
1586550593.687,16.602,28.809,33.203,20.508,63.965
1586550593.691,96.191,34.180,30.762,50.781,78.613
1586550593.695,51.758,34.668,30.762,41.504,40.039
1586550593.699,-33.203,32.715,32.715,6.348,-11.719
1586550593.703,-0.977,33.203,31.738,19.531,6.836
1586550593.707,87.402,33.203,31.738,48.828,20.508
1586550593.711,78.125,35.156,35.156,38.086,63.477
1586550593.715,-24.414,35.645,35.156,3.906,21.973
1586550593.719,-16.113,35.156,34.180,4.395,21.973
1586550593.722,69.336,34.668,34.180,35.645,29.785
1586550593.726,95.215,33.203,30.762,57.617,-0.977
1586550593.730,1.953,31.738,30.762,28.320,41.992
1586550593.734,-16.602,35.156,32.715,9.277,27.344
1586550593.738,60.547,38.086,33.203,31.250,27.344
1586550593.742,119.141,37.598,31.738,51.270,80.078
1586550593.746,38.574,36.621,31.738,21.973,24.902
1586550593.750,-24.902,32.715,31.738,-1.465,-42.480
1586550593.754,26.367,29.297,29.297,17.578,-34.180
1586550593.758,102.051,29.297,27.832,51.270,50.781
1586550593.762,51.758,30.273,32.227,38.574,63.965
1586550593.765,-37.109,29.785,31.738,-0.977,19.043
1586550593.769,-0.977,29.785,28.320,7.812,9.766
1586550593.773,83.496,31.250,27.344,44.434,5.859
1586550593.777,64.453,29.297,29.297,49.316,-27.832
1586550593.781,-41.016,25.879,31.250,7.812,-52.734
1586550593.785,-28.320,23.926,28.809,-3.906,-26.367
1586550593.789,60.059,26.855,28.320,27.344,10.254
1586550593.793,93.750,30.762,29.785,51.270,42.969
1586550593.797,-7.324,29.785,33.691,17.090,93.750
1586550593.801,-40.527,28.809,31.250,-8.301,113.770
1586550593.804,31.738,29.297,29.785,20.508,79.102
1586550593.808,90.820,29.297,30.762,55.664,15.625
1586550593.812,23.438,29.297,28.320,32.715,40.527
1586550593.816,-37.109,30.762,27.344,-8.789,27.832
1586550593.820,16.113,35.156,28.809,-1.465,-13.184
1586550593.824,96.191,34.668,30.273,43.945,41.992
1586550593.828,57.617,32.715,30.762,41.504,65.918
1586550593.832,-35.645,31.738,31.738,0.000,47.363
1586550593.836,-10.742,30.762,31.250,7.324,31.738
1586550593.840,72.266,31.738,28.320,44.434,2.441
1586550593.844,84.961,34.180,26.367,52.246,30.273
1586550593.847,-12.695,34.668,30.273,14.160,59.082
1586550593.851,-16.602,33.691,32.715,-0.977,51.270
1586550593.855,67.383,33.691,30.762,27.832,45.410
1586550593.859,107.422,32.715,33.203,56.641,-6.836
1586550593.863,15.137,34.668,35.645,24.414,-31.738
1586550593.867,-37.598,31.738,34.180,4.883,-16.113
1586550593.871,30.273,28.809,35.156,31.738,8.301
1586550593.875,108.398,31.738,33.203,55.176,20.020
1586550593.879,43.945,32.715,32.715,31.250,-5.371
1586550593.883,-28.809,31.738,31.250,-5.859,-6.348
1586550593.887,17.578,31.738,28.809,3.906,12.695
1586550593.890,98.633,32.227,32.715,46.875,1.465
1586550593.894,75.684,29.297,34.668,47.852,8.789
1586550593.898,-29.297,28.320,33.203,2.930,21.973
1586550593.902,-16.113,31.250,33.203,5.859,14.160
1586550593.906,69.336,32.715,30.273,47.363,18.066
1586550593.910,84.961,33.203,30.762,62.012,53.711
1586550593.914,-13.672,36.621,33.691,20.508,50.781
1586550593.918,-25.879,34.180,31.738,3.906,14.648
1586550593.922,59.082,29.785,27.832,30.762,36.621
1586550593.926,108.887,33.203,23.926,57.617,46.875
1586550593.929,17.090,34.180,24.902,26.855,58.594
1586550593.933,-35.645,31.738,27.344,-1.953,83.008
1586550593.937,30.762,31.250,28.320,17.090,45.898
1586550593.941,113.770,32.227,27.832,51.270,94.238
1586550593.945,52.734,32.227,31.250,33.203,85.938
1586550593.949,-41.504,30.273,29.297,-2.930,-14.160
1586550593.953,4.395,30.273,25.391,12.695,23.438
1586550593.957,85.449,31.738,29.297,50.293,70.801
1586550593.961,68.359,29.785,31.250,46.387,69.824
1586550593.965,-24.902,29.785,32.715,0.488,36.133
1586550593.969,-20.996,28.809,31.738,-8.301,-6.836
1586550593.972,60.547,26.367,29.785,34.668,2.930
1586550593.976,88.379,26.855,30.273,62.988,38.574
1586550593.980,-12.695,27.832,30.273,20.996,65.430
1586550593.984,-29.297,25.879,30.273,-1.465,18.555
1586550593.988,40.527,26.855,30.762,21.484,7.324
1586550593.992,86.914,28.809,30.762,52.246,41.992
1586550593.996,11.230,26.855,32.227,23.926,35.156
1586550594.000,-48.340,25.879,32.227,-5.859,35.645
1586550594.004,10.742,24.902,30.762,19.531,15.137
1586550594.008,97.168,29.297,29.785,57.129,19.531
1586550594.012,50.293,28.809,31.738,39.062,48.340
1586550594.015,-44.434,22.461,32.715,-8.789,59.570
1586550594.019,-7.812,27.832,35.156,-1.953,53.711
1586550594.023,87.402,32.715,36.621,42.969,14.648
1586550594.027,78.125,32.227,32.715,56.641,-36.133
1586550594.031,-27.344,33.691,30.273,11.230,-13.184
1586550594.035,-23.438,32.227,29.785,-5.859,41.992
1586550594.039,59.570,30.762,26.367,29.785,32.227
1586550594.043,95.215,32.715,25.391,55.664,-4.395
1586550594.047,-0.977,33.691,30.273,16.602,7.812
1586550594.051,-30.273,29.297,30.273,-4.883,50.781
1586550594.054,42.969,28.320,28.809,24.902,-2.930
1586550594.058,112.793,31.738,29.297,59.082,-25.879
1586550594.062,37.109,32.227,31.250,38.086,-1.953
1586550594.066,-40.527,32.227,32.227,0.977,5.859
1586550594.070,13.672,33.691,31.250,18.555,40.039
1586550594.074,102.539,32.227,31.250,58.594,10.742
1586550594.078,63.477,27.832,28.809,45.898,0.000
1586550594.082,-31.738,30.273,27.832,7.324,43.945
1586550594.086,-0.488,32.715,27.344,10.254,32.227
1586550594.090,81.055,28.809,27.344,47.363,6.836
1586550594.094,87.402,27.344,27.832,62.988,0.977
1586550594.097,-8.301,30.762,28.320,22.461,40.527
1586550594.101,-10.742,30.762,28.320,11.230,49.805
1586550594.105,73.730,33.203,28.809,44.922,1.953
1586550594.109,123.047,32.715,28.809,62.988,46.387
1586550594.113,27.832,28.809,28.809,14.160,20.020
1586550594.117,-35.645,28.320,28.320,-16.113,1.465
1586550594.121,13.672,27.832,23.438,17.090,7.812
1586550594.125,92.285,28.809,25.879,54.199,-7.812
1586550594.129,41.016,31.738,32.227,29.785,-2.930
1586550594.133,-39.062,32.715,31.250,-6.348,-11.719
1586550594.137,4.395,28.809,30.273,8.789,31.250
1586550594.140,86.426,27.832,33.203,43.945,69.336
1586550594.144,60.059,26.367,32.715,45.898,44.434
1586550594.148,-40.039,24.902,32.715,6.348,62.988
1586550594.152,-24.414,25.391,34.668,0.488,93.262
1586550594.156,63.477,26.855,35.156,37.598,94.238
1586550594.160,89.844,24.414,35.645,62.988,69.336
1586550594.164,-8.301,23.438,36.133,24.902,-0.977
1586550594.168,-26.855,22.949,35.156,10.254,-5.859
1586550594.172,55.176,22.949,38.086,45.898,-0.488
1586550594.176,108.398,22.949,38.086,70.312,17.578
1586550594.179,29.785,23.926,36.133,36.133,-27.344
1586550594.183,-23.438,29.297,34.668,5.859,19.531
1586550594.187,35.156,31.250,33.203,20.996,46.875
1586550594.191,110.352,31.250,32.715,58.105,6.836
1586550594.195,51.270,33.203,35.645,43.457,25.879
1586550594.199,-40.527,34.668,35.645,-1.465,36.133
1586550594.203,1.465,35.156,31.738,8.301,1.465
1586550594.207,89.844,30.762,31.738,41.992,-11.230
1586550594.211,76.660,28.320,31.250,43.945,34.668
1586550594.215,-20.508,29.785,27.832,7.812,41.992
1586550594.219,-14.648,29.297,28.320,2.441,22.461
1586550594.222,63.965,26.855,32.227,37.109,8.789
1586550594.226,93.750,24.414,29.297,56.641,26.367
1586550594.230,6.348,20.996,28.809,16.113,28.320
1586550594.234,-17.578,19.531,32.715,-2.441,63.477
1586550594.238,49.805,22.461,33.691,28.320,48.828
1586550594.242,103.516,23.438,32.715,59.082,0.977
1586550594.246,30.762,24.414,35.156,39.062,11.230
1586550594.250,-27.832,25.879,35.156,7.812,11.719
1586550594.254,25.879,27.344,28.809,23.926,15.625
1586550594.258,98.633,27.832,26.367,59.082,52.246
1586550594.262,63.965,28.809,28.809,47.852,43.945
1586550594.265,-21.973,31.250,32.227,8.301,41.992
1586550594.269,5.371,29.297,30.762,12.207,20.020
1586550594.273,94.727,29.297,27.344,46.875,-49.316
1586550594.277,90.332,34.668,27.344,53.223,22.949
1586550594.281,-15.625,33.203,28.809,4.883,63.477
1586550594.285,-12.207,32.227,24.414,-4.395,10.742
1586550594.289,68.848,33.691,21.484,28.809,105.957
1586550594.293,100.586,34.180,25.879,53.223,73.242
1586550594.297,6.348,33.691,28.320,20.020,-22.461
1586550594.301,-30.273,30.762,28.320,-5.371,9.277
1586550594.304,39.062,31.738,25.879,25.391,-12.695
1586550594.308,107.910,32.227,23.438,62.012,0.977
1586550594.312,44.922,31.738,27.344,39.551,5.859
1586550594.316,-28.809,34.668,29.785,2.930,1.953
1586550594.320,19.531,34.668,31.738,19.043,32.227
1586550594.324,100.586,29.785,33.203,60.547,15.137
1586550594.328,75.684,31.738,32.715,51.270,-10.742
1586550594.332,-14.648,35.156,34.180,7.812,-24.414
1586550594.336,-2.441,32.227,35.645,10.254,-31.738
1586550594.340,78.125,31.250,37.109,53.223,17.578
1586550594.344,94.238,31.250,38.574,70.312,49.316
1586550594.347,-2.441,29.785,39.551,28.320,23.926
1586550594.351,-9.277,29.297,39.551,15.625,-19.043
1586550594.355,64.941,26.855,34.668,52.246,2.441
1586550594.359,109.375,27.344,33.203,76.660,75.684
1586550594.363,19.531,28.320,35.645,41.016,76.172
1586550594.367,-26.855,28.320,33.203,21.484,23.438
1586550594.371,45.898,27.832,31.250,37.109,4.883
1586550594.375,115.723,26.367,30.762,62.012,55.664
1586550594.379,50.781,29.297,29.785,39.062,-17.090
1586550594.383,-25.391,32.227,33.203,-3.418,-29.785
1586550594.387,22.949,33.203,32.715,11.230,22.949
1586550594.390,109.863,32.227,32.715,55.176,26.855
1586550594.394,82.031,28.320,37.598,54.688,20.020
1586550594.398,-27.832,27.344,34.668,5.371,-31.250
1586550594.402,-18.066,26.855,32.227,0.488,43.945
1586550594.406,65.918,23.438,35.156,42.969,72.266
1586550594.410,91.309,23.926,36.621,61.523,45.898
1586550594.414,-4.883,27.832,36.621,20.996,101.074
1586550594.418,-22.461,31.250,34.180,4.883,72.754
1586550594.422,56.152,32.227,35.645,32.227,-10.254
1586550594.426,107.422,31.250,35.645,62.988,6.836
1586550594.429,23.438,29.297,32.715,36.133,40.527
1586550594.433,-32.715,25.879,32.227,6.836,39.551
1586550594.437,21.484,28.320,31.738,20.996,39.062
1586550594.441,93.750,30.762,29.785,49.805,36.133
1586550594.445,46.387,27.832,33.203,43.945,63.477
1586550594.449,-45.410,28.809,36.133,1.953,40.527
1586550594.453,-1.465,30.762,34.180,2.441,3.906
1586550594.457,94.238,31.738,30.762,38.086,54.688
1586550594.461,93.262,35.156,28.320,47.363,48.340
1586550594.465,-9.277,35.645,28.320,11.230,17.090
1586550594.469,-21.973,30.273,29.297,-0.488,52.734
1586550594.472,58.105,25.391,32.227,35.156,41.992
1586550594.476,91.797,29.297,29.785,53.223,33.691
1586550594.480,0.000,34.668,26.855,16.113,38.574
1586550594.484,-30.273,33.203,32.715,-0.488,58.105
1586550594.488,30.273,33.691,33.691,28.320,81.543
1586550594.492,95.703,34.180,27.832,62.988,99.609
1586550594.496,29.785,34.180,30.273,37.598,97.656
1586550594.500,-35.645,32.715,31.250,-3.418,79.590
1586550594.504,8.301,30.273,29.297,9.766,26.367
1586550594.508,90.332,32.227,31.738,56.152,2.441
1586550594.512,60.547,33.691,35.645,49.805,57.129
1586550594.515,-29.785,28.809,34.180,6.348,88.867
1586550594.519,12.695,27.344,34.668,13.672,62.988
1586550594.523,96.680,28.809,39.551,56.641,83.496
1586550594.527,92.773,27.344,38.574,79.590,45.898
1586550594.531,-2.441,27.832,35.156,38.086,-10.742
1586550594.535,-4.883,28.809,35.645,13.672,28.320
1586550594.539,69.824,31.250,33.203,36.133,21.484
1586550594.543,106.934,30.762,32.227,57.617,-19.043
1586550594.547,4.883,24.902,32.227,22.461,-0.977
1586550594.551,-41.992,23.926,32.227,-3.906,34.668
1586550594.554,32.227,29.785,29.785,17.578,35.645
1586550594.558,107.422,30.762,23.438,54.199,44.434
1586550594.562,45.898,32.715,26.367,41.992,31.250
1586550594.566,-30.762,34.668,33.691,4.883,8.789
1586550594.570,8.789,33.203,30.762,6.836,38.086
1586550594.574,88.867,32.227,26.367,41.016,21.973
1586550594.578,60.547,30.762,31.250,38.086,25.391
1586550594.582,-32.227,31.738,30.762,-3.418,27.344
1586550594.586,-4.395,33.691,27.832,-6.348,-31.250
1586550594.590,84.473,34.180,29.297,32.715,47.363
1586550594.594,93.750,32.227,31.738,51.270,90.820
1586550594.597,-10.254,32.227,32.227,7.812,-16.113
1586550594.601,-23.438,33.203,30.273,-7.812,-16.113
1586550594.605,47.852,31.250,33.203,24.902,13.672
1586550594.609,92.773,28.320,29.785,57.129,20.508
1586550594.613,6.348,26.855,22.949,29.297,39.062
1586550594.617,-43.945,31.738,24.902,-3.418,-1.953
1586550594.621,23.926,33.203,29.785,19.043,-45.410
1586550594.625,100.098,30.273,30.762,59.082,-7.812
1586550594.629,42.480,33.691,30.273,46.387,16.602
1586550594.633,-34.180,34.668,29.297,4.395,15.137
1586550594.637,9.277,32.227,28.809,2.930,1.953
1586550594.640,91.309,32.227,26.367,40.527,14.160
1586550594.644,75.684,26.367,24.414,44.922,70.801
1586550594.648,-19.531,25.391,24.902,-0.977,31.250
1586550594.652,-2.930,28.320,26.855,-6.348,59.570
1586550594.656,82.031,28.320,26.855,35.645,101.562
1586550594.660,105.957,34.668,27.344,62.012,29.785
1586550594.664,8.301,35.645,28.809,20.020,17.090
1586550594.668,-21.484,34.180,27.344,-4.395,-6.836
1586550594.672,50.293,37.109,24.902,16.602,-0.488
1586550594.676,109.375,35.645,24.902,49.805,71.777
1586550594.679,23.438,32.227,29.297,29.785,46.387
1586550594.683,-34.668,33.203,30.273,0.000,-7.812
1586550594.687,25.391,31.250,30.762,18.555,36.621
1586550594.691,90.820,29.297,28.320,47.363,76.660
1586550594.695,46.387,27.832,24.902,30.273,71.289
1586550594.699,-33.691,26.367,27.344,-4.395,55.664
1586550594.703,0.977,30.273,26.855,2.441,42.969
1586550594.707,88.379,32.227,26.367,42.969,48.340
1586550594.711,81.055,32.227,32.227,62.500,10.742
1586550594.715,-22.949,29.785,34.180,15.625,31.250
1586550594.719,-20.996,27.344,32.227,0.488,67.383
1586550594.722,56.152,25.879,33.203,38.086,38.574
1586550594.726,94.727,26.367,34.180,57.129,40.039
1586550594.730,2.930,27.344,35.156,29.297,48.828
1586550594.734,-30.762,25.879,34.668,9.766,19.043
1586550594.738,39.551,24.902,34.180,33.691,41.992
1586550594.742,94.727,25.391,34.668,68.848,52.246
1586550594.746,25.879,28.809,34.180,44.434,45.898
1586550594.750,-38.086,31.738,29.785,3.418,47.852
1586550594.754,6.836,28.809,30.762,11.230,25.391
1586550594.758,83.496,26.367,32.715,49.805,18.555
1586550594.762,47.363,29.785,32.227,39.551,37.598
1586550594.765,-40.039,29.297,32.715,-7.324,2.441
1586550594.769,-8.789,28.809,32.227,-4.883,-42.969
1586550594.773,69.824,29.785,31.250,37.598,42.480
1586550594.777,79.102,32.227,32.227,52.734,80.566
1586550594.781,-20.020,33.203,34.668,8.301,43.457
1586550594.785,-19.043,29.785,33.691,-6.348,64.941
1586550594.789,62.988,29.297,33.691,27.832,30.762
1586550594.793,98.145,28.320,35.156,61.523,14.648
1586550594.797,7.324,30.273,34.180,31.738,38.086
1586550594.801,-27.832,31.250,34.180,5.371,0.000
1586550594.804,43.457,32.715,34.180,23.438,19.531
1586550594.808,114.258,34.180,32.227,61.035,47.852
1586550594.812,47.852,30.762,35.156,45.898,40.039
1586550594.816,-37.598,31.738,33.691,-1.465,37.598
1586550594.820,1.465,31.738,28.809,5.371,39.062
1586550594.824,83.008,32.227,29.297,47.852,34.180
1586550594.828,61.523,32.715,29.785,49.316,104.980
1586550594.832,-33.203,31.738,27.832,6.836,93.750
1586550594.836,-12.207,31.250,27.832,2.441,69.824
1586550594.840,81.055,26.855,30.762,41.016,42.969
1586550594.844,103.516,26.367,33.203,65.918,8.301
1586550594.847,-0.488,27.832,32.227,25.391,77.637
1586550594.851,-17.090,27.832,28.809,5.371,82.031
1586550594.855,61.035,30.273,28.809,41.016,51.758
1586550594.859,114.258,31.250,30.273,74.707,22.949
1586550594.863,33.691,32.715,31.250,37.598,-5.859
1586550594.867,-24.902,34.668,32.227,1.465,-34.668
1586550594.871,24.902,36.621,32.227,15.625,-0.488
1586550594.875,88.379,33.691,29.297,44.922,7.324
1586550594.879,36.621,27.344,27.344,33.203,-55.176
1586550594.883,-38.086,27.832,30.273,-4.395,-41.992
1586550594.887,-7.812,27.344,31.738,1.953,32.715
1586550594.890,69.824,25.879,30.762,39.062,62.988
1586550594.894,59.082,26.367,28.809,35.645,20.508
1586550594.898,-40.527,24.902,29.785,-9.277,-12.207
1586550594.902,-24.902,25.391,30.273,-5.371,46.875
1586550594.906,61.523,26.855,30.762,31.738,48.828
1586550594.910,87.891,25.879,33.691,43.945,-20.996
1586550594.914,-5.859,25.391,35.156,11.719,19.043
1586550594.918,-11.719,24.902,32.715,-3.906,8.301
1586550594.922,74.219,27.832,31.738,23.438,29.297
1586550594.926,128.906,27.832,33.203,56.641,79.590
1586550594.929,28.320,22.949,36.133,35.156,74.219
1586550594.933,-55.664,24.902,37.109,5.859,37.598
1586550594.937,-4.395,29.785,33.691,20.996,41.504
1586550594.941,73.730,33.691,33.203,52.734,46.387
1586550594.945,45.410,34.668,33.691,38.086,-24.414
1586550594.949,-40.039,31.250,35.645,1.953,38.086
1586550594.953,-12.695,31.250,37.109,7.812,90.820
1586550594.957,79.590,34.180,31.738,49.316,66.406
1586550594.961,81.055,32.227,31.250,62.500,53.711
1586550594.965,-19.531,28.320,33.691,13.184,24.902
1586550594.969,-22.461,26.855,31.738,-4.395,38.574
1586550594.972,58.594,25.391,32.227,34.668,18.066
1586550594.976,97.656,24.902,33.691,59.570,46.387
1586550594.980,2.930,29.297,33.203,13.184,47.852
1586550594.984,-37.598,30.273,31.738,-17.090,1.465
1586550594.988,29.297,25.391,27.832,9.277,42.480
1586550594.992,99.121,23.926,27.832,44.434,38.086
1586550594.996,30.762,26.367,30.762,19.531,17.578
1586550595.000,-36.133,27.344,28.809,-15.625,-10.742
1586550595.004,30.273,27.832,29.297,6.836,-50.293
1586550595.008,110.840,30.273,31.250,50.781,-8.789
1586550595.012,68.359,32.715,31.250,48.340,41.504
1586550595.015,-36.133,29.297,29.785,8.789,16.602
1586550595.019,-16.602,27.832,30.273,2.930,12.207
1586550595.023,68.359,32.227,29.785,37.109,46.875
1586550595.027,83.008,31.738,28.320,53.223,51.758
1586550595.031,-20.508,30.273,27.344,7.812,39.551
1586550595.035,-33.203,30.762,27.344,-1.465,10.254
1586550595.039,57.617,30.762,29.785,46.387,24.902
1586550595.043,104.004,33.203,28.320,78.125,2.930
1586550595.047,9.277,29.785,28.809,33.691,15.137
1586550595.051,-31.738,24.902,33.691,-11.719,74.707
1586550595.054,33.203,25.879,30.762,2.441,42.969
1586550595.058,95.703,26.367,27.832,39.551,42.480
1586550595.062,30.762,23.438,28.809,28.809,75.195
1586550595.066,-42.480,25.879,30.273,0.000,51.270
1586550595.070,13.184,30.762,28.320,9.766,33.691
1586550595.074,97.168,33.203,26.855,43.457,66.406
1586550595.078,72.266,32.715,28.320,43.945,47.363
1586550595.082,-24.414,33.203,30.273,3.906,18.066
1586550595.086,-1.465,34.668,33.203,2.930,-2.930
1586550595.090,85.938,34.668,35.156,43.457,-26.367
1586550595.094,94.238,33.203,34.668,60.059,-6.836
1586550595.097,-4.395,28.809,33.691,19.531,47.852
1586550595.101,-23.926,31.250,34.180,5.371,26.855
1586550595.105,49.316,39.062,36.133,36.621,5.859
1586550595.109,101.562,35.156,32.715,60.547,77.148
1586550595.113,15.625,29.297,29.297,23.926,84.961
1586550595.117,-40.039,29.785,28.320,-16.602,41.504
1586550595.121,21.484,29.785,31.738,7.324,26.367
1586550595.125,102.051,28.809,33.691,50.781,59.570
1586550595.129,50.781,28.320,32.227,42.969,56.641
1586550595.133,-34.180,27.832,32.715,12.207,-10.254
1586550595.137,0.977,26.855,33.691,15.137,2.441
1586550595.140,82.031,27.832,34.668,46.387,14.648
1586550595.144,82.031,25.879,37.598,48.340,-6.836
1586550595.148,-20.996,24.414,37.109,5.371,3.906
1586550595.152,-15.625,29.785,35.156,-1.953,5.371
1586550595.156,76.660,28.320,33.691,36.133,26.855
1586550595.160,100.098,27.344,30.273,61.523,41.992
1586550595.164,-9.277,30.762,33.203,21.484,40.527
1586550595.168,-33.203,32.227,35.645,3.906,-2.441
1586550595.172,40.527,34.180,34.180,31.250,20.020
1586550595.176,100.586,32.715,33.203,61.523,55.664
1586550595.179,31.738,33.203,33.691,38.574,3.906
1586550595.183,-36.621,34.180,30.273,-1.465,2.441
1586550595.187,18.066,32.715,28.809,9.766,7.812
1586550595.191,99.121,31.250,30.273,54.688,70.312
1586550595.195,54.688,31.250,28.809,52.734,47.852
1586550595.199,-32.715,31.250,30.762,15.625,31.738
1586550595.203,-2.441,31.250,32.715,17.578,90.332
1586550595.207,85.938,32.715,32.227,50.293,16.113
1586550595.211,93.750,31.250,35.645,60.059,18.066
1586550595.215,-7.324,35.645,35.645,22.461,31.738
1586550595.219,-14.648,32.227,35.645,6.836,-33.203
1586550595.222,62.012,26.855,35.156,36.621,-27.832
1586550595.226,102.051,34.668,33.203,63.477,23.438
1586550595.230,11.719,39.062,32.227,24.902,29.785
1586550595.234,-34.180,36.621,31.250,-5.859,-24.902
1586550595.238,39.551,34.668,30.273,18.555,-18.555
1586550595.242,123.535,33.203,28.320,58.105,48.828
1586550595.246,48.340,34.180,26.855,39.551,39.551
1586550595.250,-36.621,35.156,26.367,0.000,-30.762
1586550595.254,21.973,36.133,27.832,10.254,-6.348
1586550595.258,114.746,39.551,29.297,49.805,34.668
1586550595.262,73.242,38.086,30.762,60.547,0.488
1586550595.265,-29.785,35.645,33.691,20.996,-8.789
1586550595.269,-1.953,36.133,32.715,-3.418,48.828
1586550595.273,81.055,32.227,32.227,41.992,19.043
1586550595.277,86.914,32.227,33.203,69.336,-14.160
1586550595.281,-15.625,37.109,32.227,14.648,21.973
1586550595.285,-16.113,35.156,28.809,-7.812,19.043
1586550595.289,71.777,35.156,24.902,26.367,8.301
1586550595.293,106.934,35.645,27.832,60.059,0.977
1586550595.297,14.648,35.156,34.180,32.227,10.254
1586550595.301,-21.973,34.180,30.762,0.977,-5.859
1586550595.304,38.574,32.227,25.879,10.742,-12.207
1586550595.308,98.145,28.809,27.832,53.223,29.297
1586550595.312,43.457,27.832,32.715,45.898,-16.602
1586550595.316,-40.527,29.785,34.180,-2.441,22.949
1586550595.320,-3.906,30.273,29.785,1.465,41.016
1586550595.324,85.938,28.809,28.320,53.711,4.883
1586550595.328,67.871,28.809,30.273,59.082,48.340
1586550595.332,-28.809,29.785,28.809,8.301,70.801
1586550595.336,-1.465,31.738,26.855,10.254,34.180
1586550595.340,78.125,32.715,30.762,50.293,15.625
1586550595.344,89.844,31.738,34.180,64.453,-8.789
1586550595.347,-7.324,29.785,32.715,24.414,11.230
1586550595.351,-37.598,29.785,32.715,4.883,-34.180
1586550595.355,30.762,28.320,29.785,28.320,-31.738
1586550595.359,94.727,29.297,28.809,50.293,87.402
1586550595.363,21.484,34.180,33.691,24.414,61.523
1586550595.367,-34.180,32.715,35.645,-9.277,56.152
1586550595.371,26.367,27.832,33.691,9.277,33.203
1586550595.375,101.074,29.297,29.785,56.152,-14.160
1586550595.379,56.641,32.715,31.250,52.246,3.418
1586550595.383,-31.738,31.738,34.668,16.602,36.133
1586550595.387,-1.953,31.738,33.203,19.043,78.613
1586550595.390,83.984,32.227,30.762,52.734,61.523
1586550595.394,78.613,33.203,33.203,56.641,90.332
1586550595.398,-17.578,35.645,36.133,9.766,56.641
1586550595.402,-11.230,31.738,28.809,-2.441,19.531
1586550595.406,62.988,28.320,24.414,30.762,36.133
1586550595.410,93.262,29.297,29.785,51.270,19.043
1586550595.414,1.465,28.320,29.785,14.160,11.230
1586550595.418,-30.273,29.785,29.785,-9.766,29.785
1586550595.422,32.227,31.738,30.273,25.391,54.199
1586550595.426,93.750,34.180,30.762,57.617,97.168
1586550595.429,36.621,35.156,34.180,28.320,89.844
1586550595.433,-26.367,33.691,36.133,-0.977,20.020
1586550595.437,17.090,34.180,33.203,17.578,62.500
1586550595.441,93.750,35.645,30.762,54.199,71.777
1586550595.445,54.199,35.156,29.297,43.945,38.086
1586550595.449,-41.016,34.668,31.250,6.348,83.984
1586550595.453,-12.207,34.668,31.738,10.742,36.133
1586550595.457,74.707,33.203,23.438,46.875,-9.277
1586550595.461,90.820,34.180,22.949,53.711,57.617
1586550595.465,-1.953,35.156,27.832,1.953,30.762
1586550595.469,-16.113,33.203,33.691,-12.207,29.297
1586550595.472,56.641,34.668,32.227,23.438,43.457
1586550595.476,97.168,35.645,27.832,53.223,47.363
1586550595.480,14.648,33.691,29.785,18.066,27.832
1586550595.484,-20.996,32.715,31.250,-2.441,24.902
1586550595.488,39.551,32.227,30.273,21.973,52.246
1586550595.492,112.793,29.785,28.809,57.617,61.035
1586550595.496,56.641,27.344,30.273,47.363,27.344
1586550595.500,-26.367,32.227,33.203,9.766,46.875
1586550595.504,7.812,33.691,34.668,14.648,71.777
1586550595.508,97.168,36.133,33.691,51.758,53.223
1586550595.512,76.172,39.551,33.691,57.129,39.062
1586550595.515,-24.902,35.645,33.203,10.742,-20.020
1586550595.519,0.000,35.645,33.203,10.254,-14.160
1586550595.523,82.031,33.203,33.203,51.758,93.262
1586550595.527,97.168,30.762,28.809,60.059,84.473
1586550595.531,-2.441,33.203,26.367,14.648,-23.438
1586550595.535,-22.461,29.297,30.273,3.906,-11.719
1586550595.539,53.711,29.297,29.297,35.156,-11.230
1586550595.543,106.445,34.180,25.879,59.570,-16.113
1586550595.547,23.926,32.715,27.832,32.227,22.949
1586550595.551,-34.668,29.785,33.203,8.789,41.504
1586550595.554,27.832,33.691,33.203,25.391,23.438
1586550595.558,109.375,36.621,32.715,56.641,20.996
1586550595.562,43.457,35.645,33.691,36.621,66.406
1586550595.566,-45.410,30.762,31.738,-7.812,66.406
1586550595.570,1.465,31.738,31.250,-6.348,19.043
1586550595.574,84.473,34.668,31.738,37.109,18.066
1586550595.578,77.148,38.574,34.668,54.199,40.527
1586550595.582,-20.996,39.551,36.133,10.742,33.691
1586550595.586,-21.973,36.133,30.762,-4.395,3.906
1586550595.590,66.895,37.109,28.809,31.738,10.254
1586550595.594,103.027,36.621,29.297,57.617,35.645
1586550595.597,1.953,36.621,26.855,21.484,5.859
1586550595.601,-29.785,38.574,25.391,-4.395,8.301
1586550595.605,42.969,37.109,27.832,27.832,87.891
1586550595.609,104.004,35.645,28.809,64.453,100.098
1586550595.613,26.367,37.598,29.785,34.180,35.156
1586550595.617,-35.645,38.086,32.227,-4.883,-14.160
1586550595.621,20.996,35.645,30.273,13.672,4.883
1586550595.625,94.238,36.621,27.832,55.664,65.918
1586550595.629,52.246,37.598,34.668,40.527,49.316
1586550595.633,-34.668,36.133,37.109,-0.488,-17.090
1586550595.637,-1.465,35.156,35.645,2.930,14.648
1586550595.640,82.520,31.250,34.668,34.668,37.109
1586550595.644,75.195,30.762,35.645,47.363,63.965
1586550595.648,-25.391,32.227,37.109,10.254,34.668
1586550595.652,-17.090,32.715,34.180,5.859,16.602
1586550595.656,68.359,29.785,29.297,37.109,0.000
1586550595.660,104.492,25.879,29.785,62.988,14.648
1586550595.664,16.113,28.320,36.133,35.645,41.016
1586550595.668,-20.020,30.273,38.086,10.742,-21.484
1586550595.672,42.969,31.250,30.273,33.203,3.418
1586550595.676,114.258,35.645,28.809,64.941,51.270
1586550595.679,46.387,35.645,36.621,42.480,34.180
1586550595.683,-31.738,28.320,35.156,4.395,72.266
1586550595.687,19.531,25.879,33.691,18.066,12.207
1586550595.691,102.539,26.855,31.738,58.594,-10.742
1586550595.695,61.523,27.344,32.715,57.617,96.680
1586550595.699,-34.668,27.344,35.156,17.578,40.527
1586550595.703,-8.789,30.762,32.715,7.812,-25.879
1586550595.707,66.406,31.738,30.762,41.504,-1.465
1586550595.711,80.078,32.715,30.273,55.664,-34.668
1586550595.715,-15.137,33.203,31.738,10.742,-45.410
1586550595.719,-20.996,31.738,29.785,3.418,-23.926
1586550595.722,61.035,29.297,28.809,39.062,-15.625
1586550595.726,101.562,28.809,30.273,62.012,28.809
1586550595.730,20.508,32.227,30.273,35.156,16.113
1586550595.734,-22.461,32.715,34.180,9.766,-67.871
1586550595.738,33.691,29.785,35.645,23.926,-14.648
1586550595.742,100.586,30.762,34.668,59.082,93.262
1586550595.746,35.645,28.320,36.621,41.504,103.516
1586550595.750,-39.062,27.344,33.691,-0.488,83.496
1586550595.754,3.906,31.250,31.738,4.395,57.129
1586550595.758,82.520,30.762,31.250,43.945,29.785
1586550595.762,64.941,32.227,31.738,41.992,24.902
1586550595.765,-28.809,32.227,34.668,-0.488,7.324
1586550595.769,-4.883,28.320,34.668,-0.488,16.113
1586550595.773,80.078,30.762,32.227,34.668,17.090
1586550595.777,89.844,33.691,29.785,49.316,58.594
1586550595.781,-19.043,32.227,30.762,9.277,76.660
1586550595.785,-37.598,31.250,30.762,-4.883,15.137
1586550595.789,50.293,36.133,30.762,27.344,46.875
1586550595.793,104.492,38.086,33.691,58.594,81.543
1586550595.797,18.066,33.203,33.691,29.785,21.973
1586550595.801,-36.621,31.250,28.320,-0.488,34.180
1586550595.804,20.996,27.344,27.832,14.648,104.004
1586550595.808,95.703,27.344,29.297,52.734,99.121
1586550595.812,43.457,31.738,25.391,44.922,21.973
1586550595.816,-42.480,34.668,29.297,-4.395,-21.973
1586550595.820,-2.930,36.133,34.180,-6.348,6.836
1586550595.824,78.613,34.180,32.715,37.598,27.832
1586550595.828,68.359,35.645,30.273,42.480,14.648
1586550595.832,-29.297,33.691,30.273,-2.930,11.719
1586550595.836,-23.926,31.738,30.273,-6.836,10.742
1586550595.840,61.035,34.668,30.273,26.367,76.172
1586550595.844,94.238,31.738,31.738,54.199,93.750
1586550595.847,0.977,33.203,30.273,25.879,30.762
1586550595.851,-29.785,34.668,30.273,2.930,13.672
1586550595.855,40.039,33.203,30.273,24.414,1.953
1586550595.859,102.539,31.738,29.297,55.664,34.668
1586550595.863,32.715,32.227,28.320,30.762,111.328
1586550595.867,-29.297,31.250,26.367,-1.953,92.285
1586550595.871,26.855,28.809,25.879,17.578,41.016
1586550595.875,104.980,30.762,27.344,55.176,48.828
1586550595.879,61.523,30.762,29.785,45.410,41.992
1586550595.883,-34.180,32.715,29.297,8.301,-31.738
1586550595.887,-1.465,31.250,28.809,17.090,-13.184
1586550595.890,89.355,33.691,29.297,55.176,18.555
1586550595.894,91.309,35.645,27.832,61.523,3.418
1586550595.898,-12.695,32.715,28.320,12.695,50.781
1586550595.902,-12.207,30.273,28.320,-1.953,15.137
1586550595.906,61.523,27.344,30.762,31.738,-4.883
1586550595.910,94.238,29.297,31.738,56.152,15.137
1586550595.914,5.859,27.832,30.762,19.531,21.973
1586550595.918,-35.645,26.367,30.273,-4.395,30.273
1586550595.922,35.645,27.344,30.762,22.461,11.230
1586550595.926,103.516,29.297,31.738,51.270,29.785
1586550595.929,36.133,29.297,33.691,21.484,-22.461
1586550595.933,-34.180,25.879,34.668,-16.113,-49.805
1586550595.937,8.789,25.391,30.762,4.395,-5.859
1586550595.941,92.773,24.414,28.320,48.340,40.527
1586550595.945,65.918,23.926,29.297,47.852,31.250
1586550595.949,-35.156,25.391,30.762,7.812,-11.719
1586550595.953,-14.160,24.414,31.738,5.371,35.645
1586550595.957,67.871,21.973,31.738,42.480,20.508
1586550595.961,83.496,20.996,32.227,55.176,32.227
1586550595.965,-10.254,25.879,30.762,3.418,45.410
1586550595.969,-19.043,28.809,29.785,-12.695,68.359
1586550595.972,63.477,24.902,30.762,27.832,95.215
1586550595.976,107.422,29.785,28.320,59.082,90.332
1586550595.980,13.672,33.203,29.297,28.809,101.074
1586550595.984,-33.203,30.762,32.227,9.277,46.875
1586550595.988,34.668,31.738,31.738,33.691,-11.230
1586550595.992,109.863,30.273,33.691,65.918,14.160
1586550595.996,47.852,29.785,36.133,40.039,35.156
1586550596.000,-33.203,32.227,34.180,-8.301,19.531
1586550596.004,6.836,33.203,31.250,-0.977,32.715
1586550596.008,88.379,33.691,32.715,38.574,28.320
1586550596.012,71.289,32.715,33.203,40.527,11.230
1586550596.015,-23.926,33.203,28.809,1.953,20.508
1586550596.019,-7.812,33.691,29.785,-1.953,13.672
1586550596.023,74.707,32.715,34.180,29.297,12.695
1586550596.027,94.238,30.762,35.156,52.246,61.035
1586550596.031,-11.230,30.273,36.621,18.066,53.711
1586550596.035,-30.762,29.785,36.621,-8.301,25.879
1586550596.039,51.758,28.809,32.227,17.578,41.992
1586550596.043,114.258,30.273,30.762,53.223,43.457
1586550596.047,27.832,31.738,33.203,33.691,-23.438
1586550596.051,-40.527,28.809,32.227,1.465,-60.547
1586550596.054,22.949,30.762,30.273,16.113,-25.879
1586550596.058,108.398,35.645,29.297,59.082,14.160
1586550596.062,57.617,33.691,29.785,45.410,49.805
1586550596.066,-36.621,28.320,30.273,3.906,67.871
1586550596.070,3.418,29.785,29.785,12.207,32.227
1586550596.074,91.309,32.715,33.203,46.875,14.160
1586550596.078,79.102,31.250,33.203,47.363,64.941
1586550596.082,-17.090,31.738,29.785,9.277,79.102
1586550596.086,-4.883,31.250,29.785,4.883,50.293
1586550596.090,72.266,34.180,29.297,37.598,1.953
1586550596.094,102.539,37.109,29.297,61.523,34.668
1586550596.097,3.906,33.203,33.203,21.484,18.066
1586550596.101,-26.367,32.715,34.180,-3.906,26.367
1586550596.105,55.176,31.250,32.715,27.832,67.871
1586550596.109,116.211,32.227,33.691,62.012,40.039
1586550596.113,35.645,34.668,33.691,35.156,20.996
1586550596.117,-27.344,33.203,30.762,0.977,-17.578
1586550596.121,34.668,32.227,29.297,17.578,-45.898
1586550596.125,106.445,32.715,28.320,55.664,29.785
1586550596.129,61.035,32.715,30.273,48.828,27.344
1586550596.133,-29.785,32.227,32.227,7.812,-25.391
1586550596.137,-2.441,32.715,30.273,7.812,16.113
1586550596.140,87.891,32.715,32.715,43.457,34.668
1586550596.144,95.703,32.227,35.156,54.199,46.875
1586550596.148,-14.648,33.691,33.203,14.160,83.008
1586550596.152,-24.902,32.715,33.203,2.441,63.965
1586550596.156,62.012,29.785,32.227,32.227,25.879
1586550596.160,111.328,31.250,29.297,56.641,64.453
1586550596.164,20.508,31.250,30.762,20.508,68.848
1586550596.168,-34.668,27.344,31.250,-9.277,3.906
1586550596.172,14.160,27.344,29.785,14.648,27.344
1586550596.176,87.402,31.250,30.762,60.059,22.949
1586550596.179,32.227,32.227,34.180,39.062,-11.719
1586550596.183,-44.922,31.250,33.691,-3.906,-32.227
1586550596.187,2.441,29.785,32.715,14.648,-17.578
1586550596.191,88.867,29.785,33.691,48.828,20.020
1586550596.195,73.730,34.180,30.762,48.828,17.090
1586550596.199,-26.855,34.668,26.855,12.207,50.781
1586550596.203,-17.578,30.273,29.297,13.672,4.395
1586550596.207,71.289,30.273,30.273,48.828,20.996
1586550596.211,99.121,31.738,28.320,61.035,67.871
1586550596.215,10.254,31.250,31.738,18.555,46.387
1586550596.219,-13.184,30.762,31.738,0.000,42.480
1586550596.222,62.012,27.832,30.762,36.133,13.184
1586550596.226,105.469,26.367,30.273,71.777,2.441
1586550596.230,9.766,32.227,26.367,43.457,1.465
1586550596.234,-41.504,31.250,29.297,16.602,7.812
1586550596.238,9.766,24.902,32.715,24.902,36.133
1586550596.242,89.844,27.344,34.180,54.199,42.480
1586550596.246,53.223,30.762,36.133,42.480,32.715
1586550596.250,-31.738,29.297,33.691,3.418,50.293
1586550596.254,1.465,29.297,33.691,13.672,47.363
1586550596.258,92.285,29.785,32.715,55.176,26.367
1586550596.262,83.496,30.762,31.738,60.059,26.367
1586550596.265,-20.020,30.273,32.715,16.113,64.453
1586550596.269,-12.695,30.273,32.715,2.930,43.457
1586550596.273,71.289,30.273,30.762,38.574,32.227
1586550596.277,97.656,29.785,30.273,60.059,86.426
1586550596.281,-2.441,30.273,33.203,20.020,62.500
1586550596.285,-28.809,29.297,29.297,1.465,25.391
1586550596.289,49.805,31.738,25.391,32.227,29.785
1586550596.293,109.375,33.203,23.926,63.477,43.945
1586550596.297,32.227,30.273,23.438,36.133,67.383
1586550596.301,-30.762,30.273,27.832,5.371,58.594
1586550596.304,22.461,30.273,30.762,18.555,5.859
1586550596.308,101.562,32.227,30.762,48.828,-12.207
1586550596.312,54.199,34.180,30.273,31.738,44.434
1586550596.316,-28.809,34.668,31.738,-6.348,48.828
1586550596.320,3.418,31.250,34.180,2.441,49.316
1586550596.324,72.266,30.762,35.156,45.898,-5.371
1586550596.328,68.848,33.691,35.645,59.570,-39.062
1586550596.332,-28.320,27.832,28.809,12.695,-44.922
1586550596.336,-23.926,28.320,24.414,-1.465,-24.414
1586550596.340,57.129,32.715,28.320,31.250,26.855
1586550596.344,90.820,25.391,31.250,60.547,0.000
1586550596.347,8.301,27.832,32.227,31.738,23.438
1586550596.351,-16.113,37.598,32.227,4.395,20.996
1586550596.355,46.875,31.250,29.785,26.855,68.359
1586550596.359,99.121,27.832,31.250,64.453,23.926
1586550596.363,31.250,30.273,34.180,39.062,-21.973
1586550596.367,-36.621,28.320,33.203,-0.977,8.301
1586550596.371,11.230,28.320,31.738,6.348,19.043
1586550596.375,84.473,29.785,30.762,41.504,44.434
1586550596.379,50.781,27.832,32.715,41.504,34.180
1586550596.383,-36.621,29.297,32.227,-4.883,1.953
1586550596.387,-7.812,28.809,27.832,-3.906,-44.922
1586550596.390,74.707,25.879,30.273,33.691,9.277
1586550596.394,81.055,27.832,33.203,47.852,39.551
1586550596.398,-14.648,29.785,32.715,7.812,-36.133
1586550596.402,-20.020,30.762,33.691,-10.254,-13.184
1586550596.406,60.059,32.715,34.180,21.973,50.293
1586550596.410,110.352,34.180,32.715,54.688,19.043
1586550596.414,20.020,33.203,35.156,27.344,-2.441
1586550596.418,-31.738,31.250,35.645,2.441,5.371
1586550596.422,30.762,28.809,29.785,25.391,45.410
1586550596.426,103.516,28.320,28.320,61.035,85.938
1586550596.429,45.410,31.738,32.227,41.016,34.180
1586550596.433,-33.691,30.762,33.203,2.930,-13.184
1586550596.437,8.789,29.297,29.785,13.184,45.410
1586550596.441,82.520,27.344,30.273,42.969,46.387
1586550596.445,59.570,25.391,34.180,41.992,9.277
1586550596.449,-28.320,28.809,35.645,3.906,56.152
1586550596.453,-7.324,31.250,33.203,0.000,20.996
1586550596.457,81.055,29.297,32.715,41.992,15.625
1586550596.461,102.539,29.785,34.668,60.547,9.766
1586550596.465,1.953,31.738,30.273,14.648,-11.230
1586550596.469,-20.996,31.738,27.344,4.883,25.391
1586550596.472,46.387,35.645,31.250,37.598,16.602
1586550596.476,93.750,35.645,31.738,59.082,31.738
1586550596.480,12.207,32.227,31.738,27.344,6.348
1586550596.484,-35.156,33.203,29.785,-4.395,-17.578
1586550596.488,31.738,34.180,30.762,17.578,31.738
1586550596.492,110.352,35.156,33.691,62.500,83.984
1586550596.496,62.012,35.645,34.668,48.340,90.332
1586550596.500,-25.879,32.715,34.180,11.719,33.691
1586550596.504,0.000,34.180,34.180,20.508,-11.719
1586550596.508,78.125,34.668,34.668,56.152,-14.648
1586550596.512,76.660,34.180,31.250,59.570,39.062
1586550596.515,-19.043,34.180,29.785,7.324,26.367
1586550596.519,-16.602,29.297,30.762,-3.906,2.441
1586550596.523,66.406,28.320,31.738,41.504,-0.977
1586550596.527,105.957,32.227,31.250,69.824,-26.367
1586550596.531,6.836,31.250,30.273,23.438,21.484
1586550596.535,-28.809,29.785,31.250,-6.836,59.082
1586550596.539,43.945,31.738,32.715,22.949,31.738
1586550596.543,106.934,32.715,34.668,61.523,-4.395
1586550596.547,34.180,33.203,34.180,39.551,37.109
1586550596.551,-28.320,30.273,35.645,4.883,28.320
1586550596.554,30.762,28.809,35.645,17.578,4.395
1586550596.558,116.699,32.715,34.180,57.617,16.602
1586550596.562,84.473,32.227,38.086,52.734,14.648
1586550596.566,-9.766,33.203,38.086,4.883,6.348
1586550596.570,12.207,36.621,33.691,12.695,-19.531
1586550596.574,92.773,31.738,35.156,57.617,15.137
1586550596.578,84.473,30.762,33.203,66.406,49.805
1586550596.582,-19.043,32.715,33.691,21.973,17.578
1586550596.586,-21.484,30.762,34.668,1.465,-0.488
1586550596.590,57.617,30.273,31.250,33.691,1.953
1586550596.594,94.238,29.297,30.273,59.570,16.602
1586550596.597,0.977,30.273,30.762,17.090,17.090
1586550596.601,-31.738,31.738,31.738,-4.395,7.324
1586550596.605,36.133,28.320,32.227,22.461,30.273
1586550596.609,93.750,29.297,30.762,57.129,65.918
1586550596.613,24.414,29.785,31.738,36.133,62.012
1586550596.617,-41.504,25.391,32.715,-0.977,41.016
1586550596.621,9.766,26.855,32.715,10.742,33.691
1586550596.625,90.820,31.250,32.227,51.758,94.727
1586550596.629,69.824,32.715,30.273,50.293,79.102
1586550596.633,-16.113,32.715,28.809,2.441,2.441
1586550596.637,14.648,33.203,32.227,5.371,54.688
1586550596.640,95.703,34.180,34.180,48.828,88.867
1586550596.644,99.609,31.250,32.715,62.988,43.457
1586550596.648,-8.301,30.273,32.227,17.090,49.805
1586550596.652,-26.367,29.297,34.180,-1.953,53.223
1586550596.656,46.387,28.320,34.668,29.297,31.250
1586550596.660,89.355,32.715,32.715,57.617,-4.883
1586550596.664,6.348,34.668,34.180,30.273,10.254
1586550596.668,-37.598,32.715,35.156,-1.465,30.762
1586550596.672,30.273,33.691,33.691,12.695,42.969
1586550596.676,101.562,33.691,30.762,45.898,5.859
1586550596.679,36.133,29.785,29.297,30.273,5.371
1586550596.683,-43.945,29.297,29.785,-2.441,84.961
1586550596.687,0.000,30.273,31.250,2.441,77.637
1586550596.691,88.867,32.227,28.320,42.969,59.570
1586550596.695,83.008,31.250,28.809,52.734,-0.488
1586550596.699,-12.695,30.273,34.180,10.254,-38.086
1586550596.703,-5.371,30.762,31.738,-0.977,22.949
1586550596.707,73.730,33.203,30.273,33.691,57.617
1586550596.711,98.145,34.180,33.203,60.059,61.035
1586550596.715,1.953,33.691,29.785,22.949,23.926
1586550596.719,-20.996,30.762,28.320,0.977,55.664
1586550596.722,48.340,28.320,30.273,31.250,64.453
1586550596.726,103.027,32.227,29.297,65.918,-19.531
1586550596.730,23.438,32.227,30.762,40.039,-21.973
1586550596.734,-37.109,27.832,30.762,10.742,37.109
1586550596.738,17.578,26.855,31.738,28.809,34.180
1586550596.742,88.867,26.367,32.715,58.105,31.738
1586550596.746,35.156,25.391,32.227,41.016,98.145
1586550596.750,-42.480,26.367,30.762,2.441,62.500
1586550596.754,4.395,26.855,27.832,4.395,32.715
1586550596.758,80.566,23.926,26.367,41.016,52.734
1586550596.762,70.312,24.414,26.855,45.898,56.152
1586550596.765,-22.461,27.344,29.297,0.977,27.832
1586550596.769,-20.020,27.832,32.227,-6.836,-43.457
1586550596.773,60.547,30.762,30.762,33.691,-8.301
1586550596.777,98.633,34.180,26.367,60.059,24.902
1586550596.781,0.977,32.227,26.367,20.020,16.113
1586550596.785,-34.668,30.273,25.391,-6.348,23.438
1586550596.789,44.922,30.762,25.879,19.043,-23.926
1586550596.793,112.793,31.250,27.344,54.688,46.875
1586550596.797,38.574,33.691,29.785,38.086,59.570
1586550596.801,-29.785,30.762,29.785,4.883,21.973
1586550596.804,20.020,24.414,25.391,8.789,37.109
1586550596.808,103.516,26.855,30.273,47.852,9.766
1586550596.812,76.172,30.273,33.203,42.969,10.254
1586550596.816,-20.020,27.832,27.344,0.000,-16.113
1586550596.820,-2.930,25.391,23.438,4.883,0.488
1586550596.824,83.984,23.438,26.855,43.457,55.176
1586550596.828,97.656,28.809,30.762,55.664,53.711
1586550596.832,-8.301,37.109,29.785,10.742,35.645
1586550596.836,-27.344,38.086,28.320,3.906,20.020
1586550596.840,49.805,34.668,30.273,32.715,33.691
1586550596.844,95.215,32.715,29.297,53.223,56.641
1586550596.847,4.883,34.668,29.785,25.879,36.133
1586550596.851,-36.621,34.180,28.809,-5.859,-5.859
1586550596.855,41.016,31.738,28.320,17.090,-2.930
1586550596.859,111.816,33.203,29.297,61.523,51.270
1586550596.863,44.922,32.715,29.785,45.410,50.293
1586550596.867,-36.621,30.273,32.227,-0.488,-16.113
1586550596.871,7.324,29.297,33.691,7.324,34.180
1586550596.875,92.285,29.297,33.691,52.734,39.062
1586550596.879,72.266,30.762,32.227,54.199,33.203
1586550596.883,-24.414,29.785,33.203,15.137,17.090
1586550596.887,-11.719,27.344,36.133,19.531,-23.926
1586550596.890,72.266,27.344,35.645,51.758,40.039
1586550596.894,86.914,30.762,32.227,53.223,86.426
1586550596.898,-12.695,31.738,31.738,5.371,33.691
1586550596.902,-25.879,30.273,28.809,-9.277,23.926
1586550596.906,57.617,29.785,27.832,21.973,31.738
1586550596.910,112.793,31.250,31.738,49.805,65.918
1586550596.914,24.414,29.785,34.180,18.066,44.434
1586550596.918,-33.203,27.832,33.203,-9.766,1.953
1586550596.922,24.902,26.855,32.227,12.695,37.109
1586550596.926,104.492,28.320,32.715,52.246,49.316
1586550596.929,52.734,30.762,31.738,36.621,-3.418
1586550596.933,-30.273,29.297,29.297,-5.371,-36.621
1586550596.937,14.648,27.832,26.855,10.742,20.020
1586550596.941,98.145,27.832,27.832,51.270,57.129
1586550596.945,83.984,30.762,32.227,57.129,28.320
1586550596.949,-17.090,32.715,36.133,17.578,43.457
1586550596.953,-9.766,31.250,37.109,3.418,72.266
1586550596.957,73.730,30.273,32.715,37.598,20.020
1586550596.961,100.098,29.297,32.715,63.477,-23.438
1586550596.965,5.371,29.297,34.668,23.438,-31.738
1586550596.969,-20.020,30.762,36.133,1.465,-20.020
1586550596.972,53.223,32.715,35.645,34.668,72.266
1586550596.976,111.816,32.227,35.645,67.871,88.379
1586550596.980,36.621,28.320,35.645,38.574,23.438
1586550596.984,-23.926,28.809,37.109,5.859,-4.395
1586550596.988,27.344,33.691,34.668,19.043,-1.953
1586550596.992,103.516,34.180,30.273,57.617,-1.953
1586550596.996,58.105,30.273,35.645,46.875,13.184
1586550597.000,-36.621,29.785,39.062,6.348,-1.953
1586550597.004,-8.789,32.227,33.691,12.695,16.113
1586550597.008,76.172,31.250,29.785,51.758,80.566
1586550597.012,72.266,31.250,32.715,57.617,81.543
1586550597.015,-31.250,32.227,35.156,14.648,21.973
1586550597.019,-25.879,32.227,33.203,6.348,0.000
1586550597.023,61.035,33.203,31.250,36.621,54.688
1586550597.027,98.145,35.156,32.227,56.152,70.312
1586550597.031,3.418,33.203,35.156,20.508,36.621
1586550597.035,-34.668,32.227,36.621,1.465,-26.855
1586550597.039,44.922,34.668,35.645,29.297,-33.691
1586550597.043,115.234,36.133,35.645,61.035,60.059
1586550597.047,39.062,35.156,36.133,34.668,74.707
1586550597.051,-29.785,32.715,34.180,-0.977,67.871
1586550597.054,22.461,31.250,30.762,16.602,47.363
1586550597.058,93.750,33.203,27.832,51.758,24.414
1586550597.062,48.340,39.551,25.879,38.574,49.805
1586550597.066,-44.434,35.645,28.809,-2.441,-21.973
1586550597.070,-18.066,32.227,32.715,-3.906,-65.430
1586550597.074,62.500,34.668,31.250,32.715,-21.973
1586550597.078,75.684,35.156,32.227,46.387,27.832
1586550597.082,-20.508,34.180,32.715,3.906,11.230
1586550597.086,-22.461,31.738,28.320,-7.324,20.020
1586550597.090,59.082,31.738,29.297,21.973,41.992
1586550597.094,99.121,31.738,30.273,46.387,47.363
1586550597.097,9.277,31.250,31.738,20.508,45.898
1586550597.101,-37.598,30.762,32.227,-6.836,36.133
1586550597.105,24.902,29.785,30.273,11.230,54.199
1586550597.109,101.074,29.297,28.320,52.734,56.641
1586550597.113,46.387,31.250,29.785,38.086,63.965
1586550597.117,-34.668,29.785,31.250,-8.301,-1.953
1586550597.121,11.719,28.320,26.367,1.953,-7.812
1586550597.125,91.797,28.320,26.855,47.363,71.777
1586550597.129,71.777,26.855,31.250,46.875,36.621
1586550597.133,-15.625,29.785,30.273,6.348,1.953
1586550597.137,-12.695,29.785,32.227,9.277,23.438
1586550597.140,60.547,25.879,31.738,46.387,43.457
1586550597.144,82.520,25.879,28.320,62.012,65.430
1586550597.148,-14.160,28.320,30.762,10.742,20.996
1586550597.152,-32.715,26.367,31.738,-12.695,16.113
1586550597.156,47.363,27.344,30.273,25.391,71.777
1586550597.160,108.398,29.785,29.785,52.734,24.414
1586550597.164,28.809,30.762,31.738,21.484,13.184
1586550597.168,-25.879,30.762,34.668,1.465,19.043
1586550597.172,27.344,31.250,36.133,19.531,8.789
1586550597.176,94.238,33.691,36.621,46.875,-6.836
1586550597.179,44.922,34.668,36.133,36.621,49.316
1586550597.183,-34.668,33.691,34.668,0.977,38.574
1586550597.187,-0.488,33.691,33.691,8.789,1.953
1586550597.191,86.426,33.691,32.715,54.199,73.242
1586550597.195,85.938,36.133,31.250,58.594,48.828
1586550597.199,-17.578,36.621,32.227,9.277,0.000
1586550597.203,-18.555,35.645,30.762,6.348,39.062
1586550597.207,62.988,35.156,30.273,44.922,66.406
1586550597.211,89.355,32.715,32.227,60.547,93.750
1586550597.215,-3.906,30.273,31.250,22.949,13.184
1586550597.219,-24.902,33.203,29.297,2.930,-18.066
1586550597.222,48.340,33.203,28.320,23.438,57.617
1586550597.226,109.375,29.297,27.832,59.570,32.715
1586550597.230,36.133,31.738,30.273,41.016,46.875
1586550597.234,-27.344,33.203,31.250,3.418,78.125
1586550597.238,25.879,31.250,31.250,15.625,43.945
1586550597.242,104.492,32.715,32.227,51.270,44.434
1586550597.246,62.012,31.738,32.227,41.016,89.355
1586550597.250,-26.855,30.273,30.762,6.836,42.969
1586550597.254,4.395,31.250,32.715,16.602,26.367
1586550597.258,80.566,30.762,31.738,45.410,54.688
1586550597.262,77.637,30.762,31.738,54.199,37.598
1586550597.265,-20.020,30.273,34.668,17.090,18.555
1586550597.269,-20.996,30.273,33.203,6.836,4.395
1586550597.273,62.500,31.738,32.715,38.086,30.273
1586550597.277,101.074,30.273,33.203,61.035,13.184
1586550597.281,7.324,29.297,34.668,20.508,-7.812
1586550597.285,-30.762,31.250,33.691,-8.301,-20.508
1586550597.289,43.945,32.715,32.227,16.113,-40.527
1586550597.293,108.398,33.203,29.297,55.176,-4.883
1586550597.297,28.809,33.203,29.297,37.109,25.879
1586550597.301,-49.805,30.762,29.297,-5.859,42.969
1586550597.304,6.836,31.250,28.809,5.859,81.055
1586550597.308,87.891,33.203,30.762,45.898,8.789
1586550597.312,60.547,30.273,31.738,41.992,37.109
1586550597.316,-26.367,29.785,30.273,-2.930,79.590
1586550597.320,-8.301,31.250,30.273,-1.465,6.836
1586550597.324,68.359,32.227,30.273,38.574,0.000
1586550597.328,83.496,31.738,28.809,54.688,0.977
1586550597.332,-10.254,32.227,28.320,11.230,-18.555
1586550597.336,-18.066,32.227,28.809,-11.230,-41.016
1586550597.340,53.711,32.227,25.391,21.973,-26.367
1586550597.344,96.680,33.203,24.414,52.246,-30.762
1586550597.347,14.648,32.227,29.297,19.531,5.371
1586550597.351,-30.762,34.180,29.785,-7.324,25.391
1586550597.355,30.762,35.156,29.785,23.438,39.551
1586550597.359,101.074,30.273,32.227,63.965,-4.883
1586550597.363,45.898,33.203,35.156,41.992,-0.488
1586550597.367,-31.250,35.156,32.227,3.418,50.293
1586550597.371,12.695,31.250,30.273,10.742,64.453
1586550597.375,91.309,32.227,31.738,49.805,90.820
1586550597.379,68.848,35.156,33.203,52.246,28.320
1586550597.383,-22.461,35.645,34.180,4.395,18.555
1586550597.387,-2.441,34.668,31.738,-8.301,72.754
1586550597.390,79.102,34.180,30.273,23.438,22.461
1586550597.394,98.633,35.156,30.762,50.293,5.859
1586550597.398,-6.348,33.691,33.203,15.137,46.875
1586550597.402,-33.691,32.715,35.156,1.465,-1.465
1586550597.406,43.945,35.156,34.668,31.250,-60.547
1586550597.410,100.098,36.621,33.203,59.082,-45.898
1586550597.414,16.113,34.668,33.691,27.832,23.926
1586550597.418,-41.504,31.738,34.180,-4.395,36.621
1586550597.422,18.066,30.762,32.715,17.090,8.789
1586550597.426,93.750,30.762,31.738,47.852,0.488
1586550597.429,53.711,32.227,29.785,35.645,23.926
1586550597.433,-33.203,31.250,25.879,1.465,42.480
1586550597.437,-2.441,32.715,25.391,5.859,42.480
1586550597.441,87.891,33.203,27.344,44.922,34.180
1586550597.445,76.172,30.762,28.809,51.758,33.203
1586550597.449,-26.855,33.203,28.809,9.766,57.617
1586550597.453,-17.090,32.715,27.344,4.395,27.344
1586550597.457,68.848,31.250,26.855,35.156,-1.953
1586550597.461,101.562,34.668,26.855,55.664,24.414
1586550597.465,2.930,32.715,27.832,20.020,41.504
1586550597.469,-25.879,30.762,28.320,-3.418,83.008
1586550597.472,44.922,32.227,27.344,29.297,74.219
1586550597.476,103.516,30.273,27.832,59.570,41.992
1586550597.480,29.297,30.273,28.809,28.809,55.176
1586550597.484,-32.715,32.715,25.391,-3.906,7.324
1586550597.488,21.973,32.227,27.344,12.207,12.695
1586550597.492,106.445,32.227,27.344,56.152,47.363
1586550597.496,68.359,32.227,28.320,45.898,27.344
1586550597.500,-29.785,32.715,30.762,6.836,57.129
1586550597.504,0.000,36.133,30.273,10.254,81.543
1586550597.508,83.496,31.738,30.273,42.480,83.008
1586550597.512,84.473,30.273,29.297,52.734,108.887
1586550597.515,-15.625,33.691,31.738,13.672,69.336
1586550597.519,-21.484,32.715,31.250,4.395,36.621
1586550597.523,62.988,32.227,30.273,37.109,87.891
1586550597.527,108.398,31.738,30.762,65.918,55.176
1586550597.531,9.766,31.250,34.668,28.809,17.578
1586550597.535,-24.902,31.250,36.621,-1.465,-10.742
1586550597.539,51.758,32.715,32.715,25.391,-34.668
1586550597.543,103.027,32.715,32.227,62.500,42.969
1586550597.547,41.504,32.715,31.738,47.852,57.129
1586550597.551,-13.672,36.133,28.320,18.555,18.555
1586550597.554,19.531,31.250,31.738,18.555,-5.859
1586550597.558,84.961,27.344,37.109,48.340,4.883
1586550597.562,53.711,31.250,36.621,55.664,19.531
1586550597.566,-47.363,32.715,40.039,16.602,11.719
1586550597.570,-31.738,30.762,41.504,5.371,31.738
1586550597.574,57.129,28.320,37.109,41.016,0.000
1586550597.578,81.543,27.832,34.668,57.617,-11.719
1586550597.582,-10.254,26.855,33.203,9.766,36.621
1586550597.586,-21.973,29.785,32.227,-6.348,11.719
1586550597.590,52.246,32.715,29.785,31.250,-16.602
1586550597.594,99.121,32.227,28.809,57.129,52.734
1586550597.597,9.277,30.762,31.250,20.020,71.289
1586550597.601,-41.504,30.762,30.762,-6.836,72.754
1586550597.605,24.414,28.809,31.738,15.625,39.062
1586550597.609,100.098,27.344,33.203,51.758,34.668
1586550597.613,45.898,28.320,34.180,41.992,40.527
1586550597.617,-30.762,29.785,36.133,5.859,10.254
1586550597.621,8.301,29.297,33.691,16.602,5.859
1586550597.625,85.449,27.832,29.785,55.664,34.668
1586550597.629,71.777,25.879,28.320,56.641,30.762
1586550597.633,-29.297,24.414,31.250,16.113,8.789
1586550597.637,-17.090,30.273,31.738,7.812,10.254
1586550597.640,70.801,30.273,29.297,40.039,11.230
1586550597.644,94.238,29.785,30.273,60.547,34.180
1586550597.648,1.465,35.156,30.273,20.996,30.273
1586550597.652,-14.648,35.156,32.227,2.441,-1.953
1586550597.656,52.246,33.691,32.227,34.180,-48.340
1586550597.660,105.957,31.738,31.738,69.336,35.645
1586550597.664,36.621,29.297,33.691,43.945,59.570
1586550597.668,-19.043,31.738,35.645,6.836,21.973
1586550597.672,33.691,33.691,36.133,25.879,29.297
1586550597.676,107.422,32.227,35.645,69.336,11.719
1586550597.679,72.266,32.715,35.645,54.199,-30.273
1586550597.683,-14.160,30.273,34.180,4.883,-25.391
1586550597.687,11.230,32.227,33.203,5.859,-9.766
1586550597.691,81.543,31.250,32.227,41.016,15.137
1586550597.695,67.871,27.832,32.227,53.223,49.805
1586550597.699,-25.879,30.762,31.250,14.160,57.129
1586550597.703,-22.949,31.738,30.762,-6.836,50.293
1586550597.707,56.152,33.691,29.297,25.879,-10.254
1586550597.711,91.797,34.668,27.344,51.758,-20.020
1586550597.715,5.859,30.762,29.785,15.137,8.301
1586550597.719,-21.484,32.227,30.273,-7.812,-8.789
1586550597.722,48.828,36.621,29.785,19.043,-8.789
1586550597.726,102.539,35.156,30.762,57.129,14.648
1586550597.730,29.785,34.668,35.645,36.621,0.977
1586550597.734,-28.809,35.156,33.691,0.977,-3.418
1586550597.738,15.137,34.668,33.203,10.742,-28.320
1586550597.742,85.449,35.645,34.668,44.922,8.789
1586550597.746,55.664,34.180,34.180,46.875,83.008
1586550597.750,-35.156,28.320,35.645,9.277,34.180
1586550597.754,-5.371,27.832,35.156,6.348,43.945
1586550597.758,82.031,28.809,33.691,43.457,34.668
1586550597.762,90.820,30.273,32.715,55.176,1.953
1586550597.765,-3.906,33.203,36.133,13.672,75.195
1586550597.769,-15.137,32.715,36.621,0.000,52.246
1586550597.773,60.059,31.738,34.668,35.645,-24.414
1586550597.777,101.562,30.762,35.645,62.988,46.387
1586550597.781,9.277,30.762,34.668,30.762,83.984
1586550597.785,-33.203,28.320,34.668,10.254,20.508
1586550597.789,33.203,28.320,34.180,32.227,4.883
1586550597.793,100.098,29.297,34.668,61.523,8.301
1586550597.797,44.434,32.227,36.621,38.086,-24.902
1586550597.801,-30.273,35.156,35.645,-2.441,4.883
1586550597.804,16.602,34.180,32.715,3.418,43.945
1586550597.808,102.051,33.691,32.227,49.316,27.832
1586550597.812,78.125,35.156,37.109,51.758,30.273
1586550597.816,-15.137,36.621,38.574,6.836,18.555
1586550597.820,-6.348,36.133,37.109,8.789,-10.742
1586550597.824,68.848,34.668,35.645,42.480,-17.578
1586550597.828,87.402,35.645,32.715,54.199,-6.836
1586550597.832,-12.695,33.691,32.715,12.207,49.805
1586550597.836,-30.762,32.227,31.738,-6.348,12.695
1586550597.840,43.457,31.250,30.762,28.809,1.953
1586550597.844,99.121,31.250,31.250,62.988,48.828
1586550597.847,15.625,34.668,32.227,33.691,37.598
1586550597.851,-36.621,35.645,33.203,-1.465,21.973
1586550597.855,34.180,35.645,31.738,14.648,31.738
1586550597.859,110.840,35.645,32.227,55.176,26.855
1586550597.863,49.316,35.645,33.203,45.898,60.059
1586550597.867,-42.480,34.668,33.203,6.836,43.457
1586550597.871,-5.371,31.738,33.203,16.602,7.812
1586550597.875,86.914,33.203,34.180,56.641,58.105
1586550597.879,81.543,32.715,34.668,59.082,78.125
1586550597.883,-15.137,31.738,35.156,16.602,-2.441
1586550597.887,-4.395,31.738,35.156,8.301,-4.883
1586550597.890,72.266,27.832,32.715,40.527,41.016
1586550597.894,99.121,27.344,32.227,61.523,6.836
1586550597.898,-2.441,31.738,32.715,21.484,20.508
1586550597.902,-30.762,31.738,31.250,-1.465,51.270
1586550597.906,43.945,32.715,32.715,27.344,80.566
1586550597.910,95.703,32.715,31.738,62.012,112.305
1586550597.914,16.602,32.227,33.203,34.668,80.078
1586550597.918,-36.621,32.715,35.645,0.977,36.133
1586550597.922,27.344,31.738,34.180,24.414,4.883
1586550597.926,107.422,32.227,35.645,62.012,-3.906
1586550597.929,71.289,31.738,36.133,42.969,-1.465
1586550597.933,-27.832,29.297,36.133,-1.953,-3.418
1586550597.937,-12.207,30.762,33.691,5.859,25.391
1586550597.941,71.289,32.715,30.762,45.898,18.555
1586550597.945,75.195,31.738,33.203,49.316,67.383
1586550597.949,-22.949,30.273,33.203,7.812,101.562
1586550597.953,-30.273,30.762,30.762,-0.488,57.129
1586550597.957,57.617,32.227,28.809,30.273,56.152
1586550597.961,104.980,32.715,29.785,54.688,24.414
1586550597.965,6.348,32.227,31.250,18.555,15.137
1586550597.969,-32.227,33.203,30.273,-2.441,5.859
1586550597.972,31.738,34.180,31.738,22.461,19.531
1586550597.976,99.609,37.109,32.227,54.199,19.531
1586550597.980,37.598,37.598,30.762,32.715,-4.883
1586550597.984,-42.969,33.691,31.250,-8.789,33.203
1586550597.988,7.812,36.133,29.785,13.184,27.344
1586550597.992,99.121,37.598,29.297,53.711,23.438
1586550597.996,68.359,34.668,28.809,44.922,71.289
1586550598.000,-30.762,33.203,31.738,3.418,51.270
1586550598.004,-6.836,33.203,32.715,4.883,29.297
1586550598.008,84.473,34.180,31.738,45.898,63.477
1586550598.012,100.586,33.691,34.668,62.500,57.129
1586550598.015,-2.930,33.691,34.668,22.461,-15.625
1586550598.019,-22.461,35.156,34.668,6.836,-47.852
1586550598.023,55.176,33.691,35.156,35.645,-2.441
1586550598.027,111.328,31.250,32.715,65.918,15.625
1586550598.031,26.367,30.273,33.203,37.598,-19.531
1586550598.035,-37.109,29.785,36.621,0.488,38.086
1586550598.039,15.137,29.297,38.086,14.160,92.773
1586550598.043,95.215,28.809,35.645,54.199,33.691
1586550598.047,35.156,30.273,33.691,34.180,-19.531
1586550598.051,-47.363,30.273,34.180,-4.883,1.953
1586550598.054,8.789,31.250,32.227,8.301,3.906
1586550598.058,94.238,31.738,30.762,48.340,45.410
1586550598.062,70.801,28.809,31.738,50.781,75.195
1586550598.066,-25.391,30.273,32.715,7.324,-11.230
1586550598.070,-17.578,31.250,30.762,-4.883,19.043
1586550598.074,64.453,29.785,30.273,34.180,87.891
1586550598.078,97.656,32.715,31.738,54.199,79.102
1586550598.082,8.301,36.133,31.738,11.719,24.902
1586550598.086,-14.648,35.156,27.832,-4.395,-16.602
1586550598.090,58.594,33.691,27.344,24.902,33.203
1586550598.094,106.445,32.227,31.738,59.082,65.918
1586550598.097,6.836,32.227,32.715,28.320,22.461
1586550598.101,-48.340,30.762,32.715,-4.883,2.441
1586550598.105,16.602,32.227,30.273,18.555,-24.414
1586550598.109,98.145,33.203,28.809,60.059,-41.992
1586550598.113,58.105,35.645,31.738,46.387,5.859
1586550598.117,-38.086,37.109,34.668,-0.977,-4.395
1586550598.121,-8.789,32.227,35.645,9.766,11.230
1586550598.125,67.871,32.715,35.156,54.688,27.832
1586550598.129,66.895,35.156,32.715,56.152,37.598
1586550598.133,-15.137,32.715,31.250,6.836,30.762
1586550598.137,-4.395,34.180,28.809,1.465,30.762
1586550598.140,75.684,34.668,27.344,43.457,6.348
1586550598.144,111.816,33.203,29.785,62.988,12.695
1586550598.148,13.672,34.180,32.715,19.043,49.316
1586550598.152,-28.320,33.691,31.738,0.000,1.953
1586550598.156,46.387,35.156,30.273,30.762,28.809
1586550598.160,115.234,40.039,30.762,67.383,82.031
1586550598.164,44.434,40.039,31.250,41.504,16.113
1586550598.168,-19.531,33.691,31.250,-0.488,0.977
1586550598.172,36.621,30.762,29.297,13.184,38.086
1586550598.176,105.957,28.809,26.367,56.641,59.570
1586550598.179,64.453,27.344,29.785,53.711,60.547
1586550598.183,-27.832,27.832,31.738,9.766,9.277
1586550598.187,-4.883,31.250,31.738,11.230,-25.391
1586550598.191,73.242,31.738,31.250,49.316,2.930
1586550598.195,82.031,30.762,32.227,59.082,82.031
1586550598.199,-19.531,31.738,31.250,12.207,84.473
1586550598.203,-27.344,29.785,30.762,-2.441,54.199
1586550598.207,57.617,29.785,32.227,29.297,43.945
1586550598.211,96.680,31.250,31.738,55.176,29.785
1586550598.215,1.465,28.809,33.691,25.391,30.762
1586550598.219,-33.203,27.344,32.227,-1.953,54.688
1586550598.222,37.598,26.367,30.273,21.484,23.926
1586550598.226,103.516,25.879,29.785,54.199,47.852
1586550598.230,34.668,30.762,32.227,29.785,43.457
1586550598.234,-37.598,29.785,32.227,-4.883,14.648
1586550598.238,6.836,26.855,31.738,12.207,85.449
1586550598.242,83.496,26.367,32.227,54.688,62.500
1586550598.246,64.941,27.832,32.227,49.805,25.879
1586550598.250,-36.133,26.855,32.227,-0.977,13.672
1586550598.254,-19.531,26.855,31.250,-6.348,17.090
1586550598.258,71.289,27.344,30.273,39.551,47.363
1586550598.262,84.473,25.879,28.809,58.105,23.438
1586550598.265,-14.648,29.297,30.273,20.020,1.953
1586550598.269,-24.902,30.273,30.762,5.371,-23.438
1586550598.273,50.781,30.273,31.250,33.203,-49.805
1586550598.277,104.980,29.785,32.715,61.035,25.879
1586550598.281,23.926,30.762,32.715,28.320,78.613
1586550598.285,-31.738,31.738,33.203,2.930,3.906
1586550598.289,33.691,32.715,33.203,28.320,22.461
1586550598.293,115.723,35.645,33.691,62.500,62.012
1586550598.297,57.617,35.156,34.180,37.109,21.973
1586550598.301,-31.738,34.180,33.203,-7.812,-28.320
1586550598.304,12.207,33.203,32.715,1.953,-70.801
1586550598.308,95.215,33.203,34.668,44.922,25.391
1586550598.312,77.148,33.203,35.156,43.457,26.855
1586550598.316,-27.344,33.203,33.691,-3.906,37.109
1586550598.320,-18.066,32.227,32.227,-5.371,62.012
1586550598.324,73.730,32.227,32.715,37.109,41.992
1586550598.328,100.586,36.133,34.668,59.082,114.746
1586550598.332,1.465,33.691,33.691,19.531,101.074
1586550598.336,-28.809,28.809,32.227,-5.371,67.871
1586550598.340,38.574,28.320,32.227,17.090,98.145
1586550598.344,96.680,29.297,34.668,53.711,81.543
1586550598.347,15.137,31.738,35.645,32.715,34.668
1586550598.351,-42.969,32.227,34.180,-2.930,15.137
1586550598.355,22.461,31.738,33.203,15.625,20.020
1586550598.359,104.492,29.785,35.156,58.105,60.547
1586550598.363,57.617,28.320,35.645,46.875,83.008
1586550598.367,-39.062,28.320,32.715,8.301,-11.230
1586550598.371,-3.906,26.855,34.180,16.602,-12.695
1586550598.375,87.402,30.762,34.668,48.828,63.477
1586550598.379,74.219,30.762,33.691,50.293,72.266
1586550598.383,-35.645,27.832,35.156,7.812,68.848
1586550598.387,-26.855,30.762,33.203,-2.441,16.113
1586550598.390,60.547,32.715,36.133,30.762,-19.531
1586550598.394,94.727,30.762,37.109,55.664,35.645
1586550598.398,3.418,31.738,33.691,16.113,45.410
1586550598.402,-18.555,33.691,33.203,-2.930,24.902
1586550598.406,52.734,34.668,31.250,28.809,43.945
1586550598.410,112.793,31.738,27.832,59.082,18.066
1586550598.414,35.645,28.320,30.273,34.180,-41.016
1586550598.418,-40.527,30.273,30.762,-8.789,-12.695
1586550598.422,12.695,29.785,28.809,10.254,38.086
1586550598.426,95.215,30.273,29.297,62.988,-0.488
1586550598.429,64.453,33.691,29.297,53.711,-0.977
1586550598.433,-27.344,30.762,29.785,8.301,-39.062
1586550598.437,-0.488,31.738,28.809,7.812,-1.465
1586550598.441,78.125,35.156,28.320,43.945,16.113
1586550598.445,81.055,33.203,28.320,57.617,34.180
1586550598.449,-17.578,31.738,28.809,12.207,83.496
1586550598.453,-20.020,33.203,32.227,0.000,28.809
1586550598.457,60.059,32.227,32.715,26.855,41.504
1586550598.461,106.934,30.273,32.227,53.711,20.508
1586550598.465,13.672,30.273,33.691,24.902,-48.828
1586550598.469,-44.434,30.273,37.598,-0.488,-21.973
1586550598.472,21.484,31.738,35.645,24.902,27.832
1586550598.476,94.727,31.738,31.738,58.105,45.898
1586550598.480,37.598,31.250,33.203,38.086,-28.320
1586550598.484,-36.133,30.762,33.203,-0.977,-33.203
1586550598.488,11.719,30.273,32.227,2.930,1.465
1586550598.492,90.820,30.762,32.715,45.410,20.996
1586550598.496,71.777,29.785,31.250,47.363,21.973
1586550598.500,-21.973,31.250,33.203,3.418,-6.348
1586550598.504,-15.137,32.227,34.668,0.977,-2.930
1586550598.508,64.941,31.250,28.320,35.156,39.062
1586550598.512,94.238,31.738,30.762,58.594,39.551
1586550598.515,-7.324,28.809,31.738,18.066,43.457
1586550598.519,-34.180,32.227,29.297,-1.465,11.230
1586550598.523,42.480,31.250,30.273,26.367,-4.883
1586550598.527,99.121,28.320,29.785,60.059,77.637
1586550598.531,22.461,29.297,32.227,29.785,45.410
1586550598.535,-29.785,28.320,27.832,-11.230,12.207
1586550598.539,29.297,30.762,26.855,20.020,75.195
1586550598.543,93.262,30.273,31.250,60.547,81.543
1586550598.547,41.992,26.855,30.273,40.039,21.484
1586550598.551,-31.738,29.785,30.762,-0.977,8.789
1586550598.554,0.488,31.250,33.691,4.883,14.160
1586550598.558,82.520,28.809,34.668,53.223,13.184
1586550598.562,79.590,29.297,35.156,64.941,12.695
1586550598.566,-13.672,32.227,35.156,17.090,5.859
1586550598.570,-2.930,33.691,33.203,4.395,-12.695
1586550598.574,72.266,30.273,33.203,40.527,-31.250
1586550598.578,94.727,30.273,36.133,62.012,0.977
1586550598.582,0.000,32.227,35.156,23.438,25.879
1586550598.586,-23.926,32.715,34.180,4.883,23.926
1586550598.590,55.664,35.645,32.715,28.320,29.785
1586550598.594,123.535,35.645,32.227,63.965,25.391
1586550598.597,38.086,34.668,35.156,43.945,70.312
1586550598.601,-37.598,36.621,32.715,6.348,66.406
1586550598.605,25.879,39.062,28.809,16.602,9.277
1586550598.609,106.934,38.086,27.832,61.523,9.277
1586550598.613,59.082,36.621,30.273,55.664,15.137
1586550598.617,-43.945,35.156,31.738,7.812,40.527
1586550598.621,-18.555,31.250,28.809,6.348,66.895
1586550598.625,72.754,30.762,29.785,44.434,65.918
1586550598.629,69.824,31.738,33.203,53.711,38.086
1586550598.633,-33.203,33.203,33.691,5.859,21.973
1586550598.637,-31.250,32.715,29.785,-2.930,16.602
1586550598.640,56.152,31.738,27.344,32.715,10.742
1586550598.644,95.703,33.203,29.785,52.734,11.719
1586550598.648,4.395,32.715,35.156,17.090,32.715
1586550598.652,-33.691,30.762,34.668,-8.301,6.836
1586550598.656,31.250,29.297,33.203,13.184,19.043
1586550598.660,100.586,31.250,32.715,51.270,94.238
1586550598.664,36.133,31.738,35.156,30.273,35.645
1586550598.668,-34.180,31.738,34.668,-6.348,-42.480
1586550598.672,17.090,32.715,29.785,11.230,-17.578
1586550598.676,93.262,31.250,29.297,46.875,37.109
1586550598.679,62.500,33.203,30.762,40.039,11.230
1586550598.683,-20.508,33.691,31.250,9.766,-9.766
1586550598.687,-7.812,31.250,34.180,10.742,39.551
1586550598.691,67.383,32.227,36.133,41.016,26.367
1586550598.695,96.191,32.715,37.598,57.129,10.742
1586550598.699,-2.930,33.203,39.062,14.160,38.086
1586550598.703,-35.645,32.227,36.133,-4.883,21.484
1586550598.707,40.527,30.273,35.156,35.156,21.484
1586550598.711,102.539,32.715,35.645,68.848,47.852
1586550598.715,28.809,37.109,36.621,31.738,45.410
1586550598.719,-23.926,32.715,34.180,-3.418,26.367
1586550598.722,27.832,31.738,30.762,17.578,17.578
1586550598.726,97.656,32.715,33.203,57.129,57.617
1586550598.730,49.805,33.203,34.180,44.434,65.918
1586550598.734,-21.484,34.668,32.227,8.301,31.250
1586550598.738,16.113,33.691,32.715,13.672,0.977
1586550598.742,100.098,34.668,33.203,58.105,57.617
1586550598.746,78.125,33.691,33.691,60.059,64.453
1586550598.750,-18.555,31.738,35.156,9.766,24.414
1586550598.754,-4.395,32.227,31.738,13.672,26.367
1586550598.758,70.312,31.250,27.832,47.852,23.926
1586550598.762,94.727,30.273,29.297,59.082,-6.836
1586550598.765,-6.348,29.785,27.832,18.066,31.250
1586550598.769,-26.855,32.715,27.344,-1.465,38.086
1586550598.773,62.500,31.250,27.832,27.832,30.762
1586550598.777,125.488,32.227,25.879,57.129,12.207
1586550598.781,37.109,32.715,28.320,24.902,26.855
1586550598.785,-27.832,29.785,26.855,-9.766,60.059
1586550598.789,30.762,31.738,25.879,12.207,59.570
1586550598.793,102.539,28.809,27.344,50.293,39.062
1586550598.797,58.105,31.250,31.250,46.875,-27.344
1586550598.801,-23.926,32.715,32.227,9.766,-1.953
1586550598.804,8.301,28.809,31.250,15.137,32.227
1586550598.808,90.820,32.227,29.785,54.199,53.223
1586550598.812,82.520,35.156,28.809,58.105,54.688
1586550598.816,-30.762,32.227,30.273,17.090,43.457
1586550598.820,-21.484,29.297,30.273,6.348,51.270
1586550598.824,69.336,30.762,31.250,43.945,22.461
1586550598.828,102.539,31.738,34.180,72.266,9.766
1586550598.832,2.930,31.738,33.203,23.438,18.066
1586550598.836,-31.738,32.227,31.250,0.488,5.859
1586550598.840,36.621,30.762,34.180,39.062,13.672
1586550598.844,94.238,28.809,33.691,66.895,-9.766
1586550598.847,28.320,29.785,33.203,38.574,19.043
1586550598.851,-41.504,30.273,32.227,2.441,53.223
1586550598.855,5.371,31.738,32.715,11.719,11.719
1586550598.859,94.238,33.203,33.691,48.340,25.879
1586550598.863,58.594,31.738,33.691,39.551,0.488
1586550598.867,-36.621,29.297,33.691,-2.441,16.602
1586550598.871,-2.930,27.344,30.762,1.953,35.645
1586550598.875,82.031,30.273,28.809,42.480,20.508
1586550598.879,85.449,32.715,35.156,57.129,67.871
1586550598.883,-20.020,30.762,38.574,17.578,83.984
1586550598.887,-23.438,31.250,36.133,6.836,47.852
1586550598.890,65.430,33.691,35.156,35.156,67.871
1586550598.894,107.422,34.180,35.645,57.617,87.891
1586550598.898,11.719,38.086,34.668,25.879,37.598
1586550598.902,-31.250,36.621,31.738,4.395,27.832
1586550598.906,34.668,32.227,34.668,33.691,23.438
1586550598.910,104.004,30.762,34.180,70.312,43.457
1586550598.914,48.828,31.738,31.250,44.434,48.340
1586550598.918,-22.949,29.785,32.715,4.883,15.137
1586550598.922,16.602,27.832,32.715,19.043,2.930
1586550598.926,88.379,29.785,30.273,57.129,14.160
1586550598.929,57.617,31.250,30.273,55.664,35.645
1586550598.933,-28.320,29.785,32.227,12.695,10.742
1586550598.937,-6.348,29.785,30.762,11.230,-28.320
1586550598.941,79.102,31.738,29.297,47.363,4.395
1586550598.945,90.820,32.227,32.227,57.129,49.316
1586550598.949,-18.066,30.762,33.203,10.254,12.695
1586550598.953,-34.180,30.273,31.738,-3.906,8.789
1586550598.957,41.992,31.250,30.762,29.297,71.289
1586550598.961,100.586,33.691,30.273,60.059,94.727
1586550598.965,19.531,33.691,32.227,30.273,49.316
1586550598.969,-31.250,30.762,34.668,1.465,43.457
1586550598.972,35.645,29.785,33.691,24.414,53.711
1586550598.976,106.445,30.273,32.227,63.965,46.387
1586550598.980,53.711,31.738,31.250,52.246,56.641
1586550598.984,-27.832,31.738,32.715,6.348,80.078
1586550598.988,11.230,31.738,31.250,9.766,42.480
1586550598.992,95.703,32.715,27.344,44.434,-13.184
1586550598.996,81.543,34.668,29.297,39.551,2.441
1586550599.000,-24.414,32.227,31.738,-3.906,10.254
1586550599.004,-19.043,29.785,28.809,-2.930,9.766
1586550599.008,62.012,31.250,28.320,35.645,8.301
1586550599.012,85.938,30.273,32.227,55.176,-1.465
1586550599.015,-6.348,32.715,33.203,14.160,47.852
1586550599.019,-27.832,34.180,33.203,-6.348,47.363
1586550599.023,52.246,34.180,34.668,24.902,-24.902
1586550599.027,105.469,33.691,34.180,61.035,-7.324
1586550599.031,19.043,31.738,34.180,36.621,-5.859
1586550599.035,-31.738,29.785,33.691,4.883,-20.996
1586550599.039,35.156,32.227,30.273,21.484,35.645
1586550599.043,107.422,33.691,27.832,59.570,56.641
1586550599.047,55.664,30.762,31.250,45.898,51.270
1586550599.051,-29.785,31.250,32.227,4.395,4.395
1586550599.054,0.000,31.738,30.273,10.742,21.973
1586550599.058,79.102,30.273,29.297,51.270,39.062
1586550599.062,75.684,29.297,30.273,56.152,14.160
1586550599.066,-26.367,30.762,31.250,6.836,26.367
1586550599.070,-22.461,33.203,30.273,-0.977,2.930
1586550599.074,60.059,32.227,30.762,36.133,-14.648
1586550599.078,98.145,33.203,27.832,58.105,15.625
1586550599.082,5.859,32.715,26.855,18.066,-4.883
1586550599.086,-34.668,29.785,28.320,-6.836,14.160
1586550599.090,30.273,29.297,32.715,24.414,39.551
1586550599.094,96.680,27.832,34.180,57.129,-6.836
1586550599.097,30.762,28.320,34.180,31.738,14.648
1586550599.101,-33.203,27.832,33.203,3.906,34.180
1586550599.105,8.789,25.391,33.691,24.414,35.645
1586550599.109,79.590,25.879,33.691,59.082,32.227
1586550599.113,59.082,27.832,31.250,40.039,35.645
1586550599.117,-26.855,28.320,30.762,-12.695,56.641
1586550599.121,-9.277,28.320,31.250,-9.277,46.875
1586550599.125,73.242,28.809,30.273,28.320,25.391
1586550599.129,73.730,28.809,29.785,43.457,64.941
1586550599.133,-20.020,29.297,27.832,19.043,97.168
1586550599.137,-5.371,34.180,27.832,18.555,12.695
1586550599.140,75.195,31.738,35.645,40.527,10.742
1586550599.144,110.840,26.855,40.527,48.828,86.426
1586550599.148,7.324,24.902,40.527,23.926,45.898
1586550599.152,-52.246,23.926,39.551,0.000,-19.531
1586550599.156,17.578,27.344,38.574,13.184,-12.207
1586550599.160,93.750,29.785,39.062,60.059,11.719
1586550599.164,41.504,30.273,41.504,47.852,-14.648
1586550599.168,-28.320,31.250,38.086,3.418,-37.598
1586550599.172,16.113,28.320,35.156,13.184,21.484
1586550599.176,94.238,29.297,34.668,56.641,33.691
1586550599.179,73.242,30.762,36.133,55.176,70.801
1586550599.183,-25.879,31.250,40.527,5.371,17.578
1586550599.187,-15.137,31.250,38.574,6.348,-24.902
1586550599.191,69.824,29.297,37.598,45.898,41.016
1586550599.195,101.562,31.250,37.598,61.523,31.250
1586550599.199,7.812,33.203,36.133,21.973,1.465
1586550599.203,-24.414,33.203,36.133,0.000,0.977
1586550599.207,41.016,29.785,35.645,27.344,2.441
1586550599.211,87.402,29.297,32.715,50.293,53.223
1586550599.215,5.859,31.250,33.203,18.066,54.688
1586550599.219,-42.969,29.785,33.691,-10.254,85.938
1586550599.222,22.461,31.250,31.250,13.672,46.387
1586550599.226,101.562,31.738,36.621,53.711,-9.277
1586550599.230,53.711,29.297,37.598,37.598,60.547
1586550599.234,-34.668,30.762,36.133,4.395,25.391
1586550599.238,9.766,33.691,36.133,13.184,12.695
1586550599.242,101.074,31.250,33.203,50.781,-2.441
1586550599.246,89.844,32.715,32.227,61.523,62.500
1586550599.250,-15.137,36.133,33.691,13.184,86.914
1586550599.254,-11.230,32.227,34.180,1.465,39.062
1586550599.258,60.547,29.785,32.227,32.715,60.547
1586550599.262,93.750,33.203,29.785,52.734,38.086
1586550599.265,13.184,32.227,31.250,23.438,28.320
1586550599.269,-13.672,28.809,34.180,3.418,36.621
1586550599.273,57.129,30.273,32.715,24.414,28.320
1586550599.277,110.840,31.738,32.227,59.082,23.926
1586550599.281,34.668,32.227,32.715,32.227,12.207
1586550599.285,-29.297,33.691,33.203,-0.977,-13.672
1586550599.289,24.414,32.715,33.691,20.996,-17.090
1586550599.293,101.074,27.832,34.668,63.965,55.176
1586550599.297,62.500,25.391,34.180,49.316,37.109
1586550599.301,-21.973,29.297,33.203,1.465,5.371
1586550599.304,-1.953,27.832,32.715,4.395,30.762
1586550599.308,71.777,25.879,32.715,45.898,38.086
1586550599.312,75.195,29.785,33.691,59.570,35.645
1586550599.316,-20.020,29.785,35.645,8.789,0.000
1586550599.320,-12.695,27.344,36.621,-2.930,16.113
1586550599.324,64.453,26.367,35.645,38.086,68.359
1586550599.328,95.215,26.855,35.645,61.035,57.129
1586550599.332,6.836,26.367,35.156,23.926,57.129
1586550599.336,-24.902,31.738,32.227,-2.930,69.824
1586550599.340,49.316,32.715,31.250,24.414,54.688
1586550599.344,119.141,33.203,32.227,58.594,54.688
1586550599.347,41.504,33.691,32.715,23.926,33.691
1586550599.351,-41.504,30.762,32.227,-7.812,11.230
1586550599.355,8.301,32.227,31.250,9.766,30.762
1586550599.359,90.820,31.738,28.320,42.480,86.426
1586550599.363,48.340,31.738,28.320,45.898,83.984
1586550599.367,-58.594,33.203,30.762,0.977,61.035
1586550599.371,-28.320,29.297,33.203,-5.859,20.020
1586550599.375,65.918,29.785,30.762,34.668,5.859
1586550599.379,77.148,31.738,30.762,49.316,45.410
1586550599.383,-19.531,25.391,36.133,11.719,43.457
1586550599.387,-26.855,26.367,34.180,-3.906,8.301
1586550599.390,53.711,23.438,33.203,32.715,20.996
1586550599.394,100.098,26.367,32.227,61.035,53.223
1586550599.398,6.836,33.203,29.785,20.508,49.805
1586550599.402,-40.527,31.738,31.250,-4.395,-4.395
1586550599.406,25.391,31.250,30.273,16.113,44.922
1586550599.410,106.445,31.250,29.785,46.387,59.082
1586550599.414,50.293,34.180,32.715,33.691,3.418
1586550599.418,-33.203,31.738,33.203,-1.465,18.066
1586550599.422,7.812,32.227,31.738,11.719,26.367
1586550599.426,83.008,33.691,29.785,52.246,58.594
1586550599.429,66.406,33.691,30.762,52.246,45.410
1586550599.433,-18.066,38.086,29.785,8.301,-13.184
1586550599.437,9.766,38.086,29.297,8.789,-20.996
1586550599.441,87.891,37.598,29.297,43.457,0.488
1586550599.445,93.750,36.133,28.809,52.246,-5.859
1586550599.449,-16.113,33.203,31.250,9.277,-31.738
1586550599.453,-38.086,33.203,31.250,-7.812,-2.441
1586550599.457,41.504,35.645,32.227,21.484,-32.227
1586550599.461,101.562,37.598,33.691,59.570,0.488
1586550599.465,22.949,32.227,33.691,28.320,104.492
1586550599.469,-43.945,28.809,34.668,-12.207,81.543
1586550599.472,15.625,29.785,33.203,13.184,52.246
1586550599.476,98.633,31.738,33.203,56.641,3.906
1586550599.480,52.734,35.156,35.156,45.898,25.879
1586550599.484,-30.273,33.691,34.668,8.301,41.992
1586550599.488,3.906,33.691,33.691,15.137,14.160
1586550599.492,88.867,35.645,33.691,52.734,40.039
1586550599.496,80.078,36.133,35.645,52.734,20.020
1586550599.500,-21.484,33.691,39.551,12.695,21.973
1586550599.504,-10.254,35.645,36.621,3.418,-5.371
1586550599.508,74.219,37.598,33.691,26.367,19.043
1586550599.512,98.633,35.645,33.203,50.781,74.707
1586550599.515,-8.789,33.691,35.156,20.508,37.109
1586550599.519,-41.992,32.227,35.156,-0.977,-14.648
1586550599.523,39.551,34.180,31.738,26.367,12.695
1586550599.527,99.121,33.691,33.203,59.082,14.648
1586550599.531,24.414,33.203,34.668,34.668,30.762
1586550599.535,-37.109,31.738,32.715,0.000,42.480
1586550599.539,20.996,31.738,32.227,10.742,-29.785
1586550599.543,106.934,34.180,31.250,51.270,-19.531
1586550599.547,71.777,34.668,32.227,48.340,-14.160
1586550599.551,-30.273,31.738,35.156,9.766,-32.227
1586550599.554,-12.695,29.297,36.133,18.066,-10.742
1586550599.558,78.125,28.809,35.645,56.641,30.273
1586550599.562,89.844,31.250,34.180,61.523,77.637
1586550599.566,-16.113,32.227,34.180,9.766,43.945
1586550599.570,-23.926,31.250,34.668,-1.465,13.672
1586550599.574,55.176,30.273,34.668,38.086,57.617
1586550599.578,101.562,30.273,34.668,59.570,59.570
1586550599.582,20.020,34.180,35.156,23.438,56.641
1586550599.586,-23.438,36.133,35.156,-1.953,71.777
1586550599.590,41.504,31.250,37.598,25.879,41.016
1586550599.594,108.398,29.297,37.109,62.988,-1.953
1586550599.597,44.922,32.715,36.621,41.016,1.465
1586550599.601,-27.832,31.738,38.574,3.906,-24.414
1586550599.605,14.160,30.273,34.668,12.207,26.367
1586550599.609,95.703,32.227,30.762,52.246,53.223
1586550599.613,76.660,30.762,34.180,58.105,3.418
1586550599.617,-23.438,31.250,34.180,12.207,-15.625
1586550599.621,-7.324,34.668,33.203,10.254,65.430
1586550599.625,78.613,32.715,34.668,49.316,71.777
1586550599.629,94.727,31.738,34.668,60.059,34.180
1586550599.633,-1.953,29.297,36.133,20.996,53.711
1586550599.637,-18.066,29.785,36.621,3.906,-20.508
1586550599.640,57.617,32.227,31.250,30.762,-4.883
1586550599.644,109.375,31.738,29.297,62.988,80.566
1586550599.648,24.414,33.691,32.715,36.621,28.809
1586550599.652,-32.227,33.203,35.645,6.348,16.113
1586550599.656,33.203,32.715,35.645,22.949,24.414
1586550599.660,116.699,33.691,33.203,59.082,0.000
1586550599.664,59.570,32.227,33.203,41.016,8.789
1586550599.668,-26.367,30.762,33.203,-2.441,-12.695
1586550599.672,3.906,28.809,33.203,9.277,-41.992
1586550599.676,76.660,28.320,32.227,52.734,-42.969
1586550599.679,67.383,31.738,31.738,55.664,70.312
1586550599.683,-29.785,30.762,32.715,7.812,83.984
1586550599.687,-23.926,30.273,32.715,6.348,-14.648
1586550599.691,69.336,36.133,35.645,41.504,2.441
1586550599.695,100.586,36.621,37.109,60.059,47.852
1586550599.699,1.465,33.203,36.621,24.414,7.324
1586550599.703,-24.902,34.668,35.645,-1.465,27.344
1586550599.707,46.875,35.156,35.156,24.902,12.695
1586550599.711,105.957,35.156,35.156,64.453,-22.949
1586550599.715,23.926,36.133,35.156,37.109,-9.277
1586550599.719,-35.156,36.621,33.203,-1.465,24.414
1586550599.722,27.344,35.645,31.250,17.578,88.379
1586550599.726,107.422,35.645,32.227,54.199,77.637
1586550599.730,59.570,36.621,35.156,47.363,82.031
1586550599.734,-32.227,36.621,35.156,10.254,34.668
1586550599.738,1.465,37.109,33.691,11.230,-2.930
1586550599.742,77.637,33.203,35.645,48.828,63.477
1586550599.746,80.078,32.715,36.133,60.059,64.941
1586550599.750,-7.324,32.715,38.086,20.508,26.855
1586550599.754,-9.277,32.227,37.598,7.812,16.113
1586550599.758,69.824,35.645,34.668,39.551,11.230
1586550599.762,108.398,34.180,34.668,65.430,39.062
1586550599.765,15.137,33.203,37.109,27.832,83.008
1586550599.769,-24.414,33.691,34.668,0.977,36.621
1586550599.773,42.969,32.715,32.715,30.762,19.531
1586550599.777,109.375,30.762,35.645,71.289,52.734
1586550599.781,40.039,31.250,35.645,49.805,47.363
1586550599.785,-28.320,30.762,39.062,10.742,13.184
1586550599.789,17.578,29.297,41.016,19.531,9.277
1586550599.793,91.797,29.297,34.668,58.594,10.742
1586550599.797,59.082,30.273,37.109,57.129,26.367
1586550599.801,-26.367,31.738,39.062,16.602,34.668
1586550599.804,-6.836,30.273,34.180,11.719,17.090
1586550599.808,67.383,29.297,30.762,44.434,39.551
1586550599.812,79.590,30.762,30.762,54.199,51.270
1586550599.816,-12.207,30.273,33.691,11.719,23.438
1586550599.820,-13.184,30.762,32.227,-3.418,48.828
1586550599.824,65.918,33.691,31.250,31.250,61.523
1586550599.828,105.469,33.691,34.180,59.570,20.508
1586550599.832,20.508,32.715,35.156,24.414,-6.348
1586550599.836,-28.320,31.250,35.156,-1.465,23.926
1586550599.840,34.668,31.250,31.250,21.973,65.430
1586550599.844,105.469,33.203,30.273,54.199,43.945
1586550599.847,36.621,29.297,32.715,35.645,41.016
1586550599.851,-38.086,30.273,29.785,-2.930,35.156
1586550599.855,8.301,32.227,30.273,10.254,-38.086
1586550599.859,91.309,29.297,35.156,52.734,-16.602
1586550599.863,70.312,30.273,36.133,53.223,57.617
1586550599.867,-30.762,32.227,35.156,11.719,15.137
1586550599.871,-7.812,29.297,32.715,6.348,-12.207
1586550599.875,78.125,29.297,31.738,40.039,35.156
1586550599.879,94.727,30.273,33.691,54.199,41.016
1586550599.883,-2.930,28.320,35.156,13.184,-12.695
1586550599.887,-32.227,28.809,33.691,-1.465,-7.324
1586550599.890,40.527,30.273,34.668,32.715,8.789
1586550599.894,103.027,28.320,35.156,65.918,56.152
1586550599.898,23.438,29.297,33.203,32.715,120.605
1586550599.902,-32.715,29.297,31.738,-0.977,96.680
1586550599.906,21.973,28.809,30.762,17.090,113.281
1586550599.910,103.516,31.738,32.227,56.152,88.379
1586550599.914,53.711,32.715,33.203,39.062,1.465
1586550599.918,-33.203,31.250,30.762,-1.953,32.715
1586550599.922,0.977,29.785,28.809,9.277,69.336
1586550599.926,82.520,30.762,28.320,46.875,51.758
1586550599.929,71.289,29.297,29.297,49.805,35.645
1586550599.933,-26.367,26.367,30.273,2.441,40.527
1586550599.937,-13.672,29.785,31.738,-3.418,41.992
1586550599.941,74.707,31.250,31.738,40.039,50.781
1586550599.945,114.746,28.809,33.691,65.918,65.430
1586550599.949,6.836,29.785,37.109,24.902,12.207
1586550599.953,-34.180,33.691,38.086,2.930,-2.930
1586550599.957,43.945,31.738,37.109,42.480,11.230
1586550599.961,110.840,30.762,34.180,73.730,21.973
1586550599.965,31.250,32.715,33.203,38.574,22.461
1586550599.969,-34.668,31.250,34.668,3.418,3.418
1586550599.972,21.973,29.785,34.180,15.625,23.438
1586550599.976,101.074,30.273,30.762,63.477,82.031
1586550599.980,63.477,30.762,31.738,56.641,122.559
1586550599.984,-26.367,31.250,34.668,6.836,100.586
1586550599.988,3.906,30.762,36.621,18.555,51.758
1586550599.992,81.543,31.250,35.156,56.152,26.855
1586550599.996,81.055,30.273,36.621,60.059,5.371
1586550600.000,-21.973,32.227,39.062,19.531,30.762
1586550600.004,-25.391,32.227,38.086,4.883,19.531
1586550600.008,63.477,29.785,36.621,35.156,8.301
1586550600.012,105.957,30.762,35.156,61.523,19.043
1586550600.015,13.184,30.273,39.062,33.691,30.762
1586550600.019,-26.367,30.762,41.504,8.789,33.691
1586550600.023,41.504,32.227,37.109,25.391,6.348
1586550600.027,109.375,33.203,38.086,55.664,17.578
1586550600.031,39.551,34.180,41.016,35.645,1.465
1586550600.035,-39.062,34.668,38.086,-5.371,22.461
1586550600.039,8.789,33.203,38.086,4.883,88.867
1586550600.043,93.750,32.227,40.527,51.270,80.078
1586550600.047,67.383,33.203,40.039,48.340,70.312
1586550600.051,-24.902,35.156,38.086,0.977,55.664
1586550600.054,2.441,35.645,37.109,5.859,4.883
