timestamps,TP9,AF7,AF8,TP10,Right AUX
1586550348.758,-54.199,20.508,-1.953,-0.977,37.109
1586550348.762,5.859,19.531,-3.418,20.996,-0.488
1586550348.765,115.234,17.578,-2.930,67.383,18.066
1586550348.769,58.594,17.578,-4.883,53.223,17.090
1586550348.773,-64.941,19.043,-4.395,-13.184,65.430
1586550348.777,-38.086,16.602,-2.441,-23.438,75.684
1586550348.781,89.355,15.625,-1.465,16.602,21.484
1586550348.785,113.770,17.090,0.977,28.809,33.203
1586550348.789,-24.902,17.090,0.488,-15.137,29.785
1586550348.793,-53.223,16.113,2.930,-15.137,32.715
1586550348.797,57.617,17.578,4.883,31.250,70.801
1586550348.801,119.141,19.531,3.418,57.617,27.832
1586550348.805,-7.324,18.066,4.883,23.438,1.465
1586550348.808,-66.895,19.531,5.859,-6.348,-22.461
1586550348.812,18.066,26.855,-0.488,15.625,4.883
1586550348.816,114.258,30.762,0.488,62.500,37.598
1586550348.820,41.016,31.738,3.418,38.086,1.465
1586550348.824,-58.594,33.691,-1.953,-16.602,38.086
1586550348.828,-10.742,31.738,-2.441,-5.371,78.613
1586550348.832,111.816,33.203,4.395,45.898,63.477
1586550348.836,87.891,34.668,0.488,41.504,54.199
1586550348.840,-46.387,31.738,-2.441,-8.301,10.254
1586550348.844,-44.434,31.738,2.930,0.488,-35.645
1586550348.848,79.590,29.785,2.930,48.340,8.301
1586550348.851,113.770,30.273,0.000,53.223,20.996
1586550348.855,-13.184,29.785,-0.977,3.906,-8.301
1586550348.859,-58.594,27.832,-3.418,-11.719,-21.973
1586550348.863,37.109,26.367,-3.418,36.621,18.066
1586550348.867,123.047,22.949,-0.488,77.637,36.621
1586550348.871,9.766,24.414,-3.906,30.762,-0.977
1586550348.875,-78.125,23.438,-2.441,-19.531,-2.930
1586550348.879,-1.953,21.973,2.930,-9.766,17.090
1586550348.883,111.328,26.367,5.371,31.738,14.160
1586550348.887,53.223,22.949,2.441,16.602,17.578
1586550348.890,-56.641,23.926,-1.953,-20.020,7.324
1586550348.894,-29.297,30.273,3.418,-0.977,30.762
1586550348.898,92.773,30.273,2.441,44.434,73.242
1586550348.902,90.820,27.832,-3.418,50.781,71.777
1586550348.906,-47.363,26.367,2.441,-0.488,32.715
1586550348.910,-48.828,27.832,5.371,-12.207,23.438
1586550348.914,60.547,28.809,4.883,34.668,67.871
1586550348.918,98.145,29.785,3.418,65.918,58.105
1586550348.922,-20.508,28.320,-0.977,27.344,4.395
1586550348.926,-64.453,27.344,-1.465,-9.766,-21.973
1586550348.930,18.555,26.367,-0.977,17.090,33.691
1586550348.933,103.516,25.879,-2.930,56.641,71.777
1586550348.937,22.461,26.367,-1.465,34.180,66.406
1586550348.941,-51.270,27.344,-1.953,3.906,41.016
1586550348.945,9.277,25.879,-2.441,6.836,36.621
1586550348.949,115.234,24.414,-1.953,49.805,37.598
1586550348.953,77.637,25.879,-4.395,41.504,-12.695
1586550348.957,-39.551,26.367,-1.465,-3.906,3.418
1586550348.961,-34.180,26.367,-0.488,-1.953,56.641
1586550348.965,75.684,27.344,-1.953,47.363,49.316
1586550348.969,83.008,27.344,0.000,48.828,6.836
1586550348.973,-42.480,30.273,0.488,0.488,46.387
1586550348.976,-52.246,28.809,0.488,1.465,14.160
1586550348.980,62.988,25.879,6.836,50.781,-3.906
1586550348.984,125.000,29.785,4.395,72.266,39.062
1586550348.988,11.230,29.785,3.906,20.996,28.320
1586550348.992,-41.016,29.297,9.277,-4.395,36.133
1586550348.996,40.039,29.297,5.371,21.484,46.387
1586550349.000,130.859,27.344,5.371,58.594,53.711
1586550349.004,38.086,25.879,7.324,30.762,20.020
1586550349.008,-59.082,26.367,8.789,-11.719,19.531
1586550349.012,-11.719,25.391,5.371,1.953,19.043
1586550349.015,107.422,26.367,4.883,42.969,32.715
1586550349.019,89.355,29.785,9.766,43.945,23.438
1586550349.023,-43.945,29.297,4.883,3.418,-4.883
1586550349.027,-30.762,29.785,1.465,3.418,30.762
1586550349.031,104.004,33.203,5.859,47.363,57.129
1586550349.035,144.043,37.598,6.836,59.570,-7.812
1586550349.039,16.113,32.227,0.977,6.836,1.953
1586550349.043,-21.484,23.438,-5.371,-16.113,60.059
1586550349.047,66.895,22.461,-4.395,20.020,41.016
1586550349.051,122.559,21.973,-1.953,53.223,11.719
1586550349.055,7.812,22.949,0.488,13.672,29.297
1586550349.058,-62.500,21.484,-0.488,-13.184,59.570
1586550349.062,20.020,20.508,-1.953,9.766,35.645
1586550349.066,131.348,23.438,4.395,54.688,32.715
1586550349.070,65.430,23.926,4.395,37.109,52.734
1586550349.074,-34.668,23.438,0.000,-11.230,26.855
1586550349.078,14.648,23.926,0.000,2.441,33.203
1586550349.082,124.023,24.414,0.488,47.852,68.359
1586550349.086,99.121,25.391,0.977,51.270,78.613
1586550349.090,-22.461,23.926,-0.977,-4.395,20.508
1586550349.094,-16.113,26.367,-1.953,-13.672,-3.906
1586550349.098,95.703,27.832,0.000,41.504,58.105
1586550349.101,118.164,29.785,2.930,50.293,43.945
1586550349.105,-11.230,29.785,-0.488,0.488,-13.672
1586550349.109,-46.387,25.391,-2.930,-6.348,12.207
1586550349.113,40.039,25.391,2.441,30.762,59.570
1586550349.117,130.371,26.855,0.488,70.312,11.230
1586550349.121,41.504,27.344,-1.953,36.133,-10.742
1586550349.125,-45.410,26.855,2.441,-4.395,36.621
1586550349.129,13.672,27.344,2.441,15.625,49.805
1586550349.133,123.047,30.273,2.441,63.477,38.086
1586550349.137,55.664,27.832,3.418,50.781,88.867
1586550349.140,-68.848,29.297,-0.488,-7.324,42.480
1586550349.144,-29.785,30.273,-2.441,-12.207,3.418
1586550349.148,94.727,29.297,2.441,29.785,53.223
1586550349.152,82.520,29.297,0.977,27.344,23.926
1586550349.156,-44.922,28.809,-1.953,-20.020,31.250
1586550349.160,-45.898,29.297,-0.977,-31.738,32.227
1586550349.164,45.410,27.832,0.000,3.906,-11.719
1586550349.168,94.238,29.785,2.441,27.344,12.207
1586550349.172,-22.461,30.273,1.953,-16.602,80.566
1586550349.176,-93.262,28.320,4.883,-30.762,48.340
1586550349.180,4.395,33.203,9.277,16.113,3.418
1586550349.183,89.844,36.133,7.812,48.828,-6.836
1586550349.187,-14.160,31.738,4.883,-0.977,-27.344
1586550349.191,-97.656,28.809,3.906,-52.246,20.020
1586550349.195,-49.316,34.180,8.301,-36.621,21.484
1586550349.199,60.547,40.039,10.742,9.766,23.438
1586550349.203,11.230,39.551,10.254,-1.465,33.691
1586550349.207,-103.027,36.621,9.766,-39.062,25.879
1586550349.211,-71.289,33.691,4.395,-33.691,28.809
1586550349.215,43.457,34.668,3.418,1.465,-2.930
1586550349.219,70.312,38.574,5.859,12.695,21.484
1586550349.223,-57.617,37.109,3.418,-24.414,41.504
1586550349.226,-91.309,33.691,0.977,-31.738,1.953
1586550349.230,26.367,34.180,2.441,7.812,51.758
1586550349.234,92.285,33.691,3.906,41.992,49.316
1586550349.238,-18.555,31.250,1.465,9.766,-4.883
1586550349.242,-75.195,34.180,-2.441,-10.254,24.902
1586550349.246,13.672,32.227,-2.930,23.926,87.402
1586550349.250,114.746,28.809,0.977,55.664,31.738
1586550349.254,35.156,31.250,-1.953,18.066,31.250
1586550349.258,-53.223,30.762,-5.859,-14.160,75.684
1586550349.262,-10.254,27.344,-2.930,4.395,49.805
1586550349.265,100.098,28.809,-4.883,51.270,44.922
1586550349.269,82.520,29.785,-6.348,52.734,42.480
1586550349.273,-40.039,27.344,-5.371,-0.488,36.621
1586550349.277,-30.273,27.344,-3.418,-0.977,15.137
1586550349.281,93.262,28.809,-1.465,51.270,17.090
1586550349.285,113.770,24.902,-1.953,69.824,80.566
1586550349.289,-20.508,23.438,-2.930,25.391,43.945
1586550349.293,-55.664,23.438,-1.465,12.207,36.621
1586550349.297,41.016,19.531,-2.930,39.551,62.988
1586550349.301,125.488,22.949,-0.977,55.176,54.199
1586550349.305,9.766,23.438,-0.977,15.137,51.270
1586550349.308,-73.242,21.484,-0.488,-7.812,62.012
1586550349.312,21.484,25.879,-0.977,25.391,100.098
1586550349.316,136.230,28.320,-3.906,64.941,100.098
1586550349.320,65.918,27.832,-5.371,45.898,62.988
1586550349.324,-48.828,27.344,-7.324,4.395,47.363
1586550349.328,-27.832,23.926,-5.859,15.625,2.930
1586550349.332,79.590,24.414,-6.348,60.547,2.930
1586550349.336,68.848,29.785,-6.836,54.688,20.020
1586550349.340,-55.664,28.809,-6.348,6.836,7.324
1586550349.344,-53.223,20.508,-8.301,6.348,-12.695
1586550349.348,61.523,22.461,-8.789,42.480,31.738
1586550349.351,105.957,24.414,-5.371,57.129,51.758
1586550349.355,-10.254,21.484,-4.883,12.695,20.996
1586550349.359,-51.758,21.973,-6.836,-17.578,13.672
1586550349.363,34.180,20.996,-5.371,10.742,12.695
1586550349.367,117.188,20.508,-4.883,65.918,30.762
1586550349.371,22.949,23.438,-5.371,38.086,52.246
1586550349.375,-56.641,25.391,-5.859,-10.742,49.805
1586550349.379,12.207,25.879,-5.371,15.625,-25.391
1586550349.383,130.371,27.832,-7.812,67.383,7.324
1586550349.387,79.590,25.879,-9.766,47.363,45.898
1586550349.390,-40.039,26.855,-6.836,-6.348,-14.160
1586550349.394,-2.441,30.762,-5.371,-0.977,-16.113
1586550349.398,116.211,28.320,0.488,55.176,4.883
1586550349.402,104.004,25.391,3.906,63.477,25.879
1586550349.406,-36.621,27.832,2.441,-2.441,67.871
1586550349.410,-48.828,31.250,1.465,-24.414,66.895
1586550349.414,73.242,32.227,5.371,26.855,35.156
1586550349.418,123.047,30.762,8.301,61.523,11.719
1586550349.422,-7.812,29.297,6.836,22.461,-11.719
1586550349.426,-63.477,27.832,5.371,-1.465,65.918
1586550349.430,29.297,29.297,3.906,22.949,101.562
1586550349.433,134.766,31.738,0.977,59.082,-7.812
1586550349.437,35.645,28.320,0.000,19.043,-67.871
1586550349.441,-66.895,25.879,-0.488,-19.531,-15.625
1586550349.445,-11.230,23.926,0.977,10.742,40.527
1586550349.449,109.863,22.461,4.883,53.223,24.414
1586550349.453,70.312,23.438,4.883,44.922,5.371
1586550349.457,-56.641,24.902,0.977,1.465,-5.859
1586550349.461,-32.715,25.879,-0.488,-0.488,24.414
1586550349.465,80.078,23.926,0.000,39.062,21.484
1586550349.469,104.492,24.902,0.000,42.969,47.852
1586550349.473,-12.695,26.855,-1.465,-8.301,73.730
1586550349.476,-27.832,26.855,1.953,-12.207,-31.738
1586550349.480,75.684,27.344,4.395,36.621,-51.758
1586550349.484,125.000,25.391,1.953,63.965,-13.672
1586550349.488,8.301,23.926,0.488,19.531,-6.348
1586550349.492,-47.363,24.902,-0.488,-8.301,-30.762
1586550349.496,39.551,24.414,2.441,20.508,-20.996
1586550349.500,143.555,21.973,4.395,58.594,62.988
1586550349.504,67.383,23.926,2.441,34.668,74.707
1586550349.508,-43.457,26.367,0.000,-11.230,44.922
1586550349.512,0.977,23.438,1.953,-0.977,49.805
1586550349.515,122.559,23.926,4.883,48.340,0.000
1586550349.519,107.910,28.320,5.859,52.246,3.418
1586550349.523,-8.789,27.344,3.418,12.207,53.711
1586550349.527,-10.254,23.926,1.465,14.648,57.617
1586550349.531,84.961,23.438,3.906,61.035,62.012
1586550349.535,119.141,27.344,6.836,73.730,71.289
1586550349.539,4.883,29.297,6.348,15.137,35.645
1586550349.543,-32.715,26.855,6.836,-3.418,21.973
1586550349.547,63.965,25.879,7.812,29.785,75.195
1586550349.551,149.902,27.344,8.789,58.105,85.449
1586550349.555,46.387,27.344,8.301,26.855,35.156
1586550349.558,-34.180,26.855,5.371,-13.184,20.508
1586550349.562,36.621,26.855,5.371,15.137,20.508
1586550349.566,128.418,23.438,5.371,59.082,29.785
1586550349.570,55.176,22.461,1.465,44.434,41.504
1586550349.574,-52.734,23.926,0.000,11.719,75.684
1586550349.578,-22.461,23.926,1.465,4.395,51.758
1586550349.582,91.797,22.949,3.418,36.621,6.348
1586550349.586,82.520,26.855,3.418,30.762,53.223
1586550349.590,-45.410,29.297,1.465,-21.484,44.434
1586550349.594,-45.898,25.879,1.953,-17.090,-14.648
1586550349.598,57.617,26.367,2.441,28.809,20.996
1586550349.601,95.703,25.879,2.930,50.781,36.621
1586550349.605,-30.762,24.902,2.441,9.277,65.430
1586550349.609,-70.801,26.367,2.930,-14.160,82.520
1586550349.613,22.949,22.949,5.371,22.461,39.062
1586550349.617,99.121,24.902,2.441,52.246,31.250
1586550349.621,6.348,27.832,-1.465,15.625,24.414
1586550349.625,-81.543,25.391,1.953,-14.648,38.086
1586550349.629,-13.184,25.391,2.441,9.766,36.133
1586550349.633,100.586,23.926,2.930,57.617,4.395
1586550349.637,53.711,24.414,5.371,50.293,32.227
1586550349.640,-55.176,26.855,1.953,-5.859,20.508
1586550349.644,-27.832,25.391,2.441,-9.277,-11.230
1586550349.648,92.773,24.902,8.789,40.039,0.000
1586550349.652,95.215,23.926,6.348,41.504,20.996
1586550349.656,-33.203,23.926,1.953,-8.301,5.859
1586550349.660,-47.363,21.973,3.906,-11.719,2.930
1586550349.664,45.410,20.020,4.395,28.809,6.836
1586550349.668,94.727,20.996,2.441,43.457,-42.480
1586550349.672,-18.066,22.949,0.488,4.883,-83.496
1586550349.676,-73.730,23.926,0.488,-11.719,-33.203
1586550349.680,16.602,26.855,1.465,12.695,44.922
1586550349.683,116.211,26.367,4.883,52.246,-17.578
1586550349.687,37.109,25.391,5.371,28.809,0.488
1586550349.691,-61.035,24.902,1.953,-10.254,10.254
1586550349.695,-9.766,24.902,1.953,13.184,-16.113
1586550349.699,92.773,23.438,2.930,64.453,8.789
1586550349.703,63.965,24.902,-1.465,44.922,51.270
1586550349.707,-45.410,27.344,-3.906,-12.695,76.172
1586550349.711,-33.203,26.855,0.000,-7.812,26.855
1586550349.715,86.914,27.344,-1.465,52.246,23.438
1586550349.719,111.328,24.902,-1.953,54.688,62.988
1586550349.723,-4.395,24.414,0.488,-11.230,67.871
1586550349.726,-31.738,25.879,-0.977,-20.020,10.254
1586550349.730,58.105,25.391,-1.465,22.461,-15.625
1586550349.734,114.746,23.926,0.977,54.688,28.809
1586550349.738,13.184,24.414,2.930,25.391,46.387
1586550349.742,-48.340,22.461,4.883,-2.441,30.273
1586550349.746,28.320,21.484,3.418,16.602,48.828
1586550349.750,138.184,25.879,3.418,50.781,36.133
1586550349.754,69.824,23.438,0.488,26.367,-3.906
1586550349.758,-28.809,22.949,0.488,-8.301,-8.789
1586550349.762,15.137,25.391,3.418,16.113,-10.254
1586550349.765,133.301,25.391,1.953,64.941,29.785
1586550349.769,132.324,27.344,-0.977,59.570,25.391
1586550349.773,13.672,29.297,-3.906,18.066,26.367
1586550349.777,6.836,29.297,-1.465,20.996,44.434
1586550349.781,118.164,29.785,4.395,56.152,43.457
1586550349.785,156.738,26.367,1.465,69.824,53.223
1586550349.789,38.086,25.391,-6.348,22.949,45.410
1586550349.793,-12.207,24.414,-3.418,-1.465,41.504
1586550349.797,72.754,21.484,0.977,33.691,-2.441
1586550349.801,146.973,22.949,0.977,62.500,49.316
1586550349.805,41.504,23.926,-0.488,21.973,44.922
1586550349.808,-34.180,21.973,2.441,-8.301,-6.348
1586550349.812,25.391,20.508,4.395,10.742,60.059
1586550349.816,124.023,21.484,3.418,55.664,91.309
1586550349.820,60.547,22.949,4.883,31.738,32.227
1586550349.824,-51.758,24.902,3.418,-17.578,52.246
1586550349.828,-20.996,24.414,4.883,5.859,56.641
1586550349.832,84.961,25.391,7.812,70.312,56.641
1586550349.836,73.242,27.344,6.348,75.684,50.781
1586550349.840,-43.457,26.367,4.395,13.672,13.672
1586550349.844,-51.758,28.320,0.000,-5.859,41.992
1586550349.848,58.105,27.832,1.465,19.043,87.402
1586550349.851,109.375,25.391,5.371,35.645,45.410
1586550349.855,-9.766,28.809,2.441,-6.348,-12.695
1586550349.859,-63.477,28.320,5.371,-25.879,3.906
1586550349.863,22.461,26.367,6.348,13.672,8.789
1586550349.867,114.746,26.367,2.930,62.012,33.691
1586550349.871,26.855,26.855,5.371,37.109,61.035
1586550349.875,-56.152,27.344,5.859,1.465,20.508
1586550349.879,-9.766,26.855,6.836,10.254,45.898
1586550349.883,75.684,24.414,10.254,50.781,86.914
1586550349.887,24.902,24.902,9.766,35.645,32.715
1586550349.890,-87.891,24.902,8.789,-5.859,7.324
1586550349.894,-70.312,23.926,8.789,2.930,-8.301
1586550349.898,49.805,27.832,8.789,39.551,-0.488
1586550349.902,60.059,27.344,8.789,40.039,27.344
1586550349.906,-67.871,30.762,8.301,-16.113,72.754
1586550349.910,-88.379,30.762,7.324,-25.391,20.020
1586550349.914,26.855,24.414,9.766,27.344,4.883
1586550349.918,93.262,27.344,12.207,62.012,21.973
1586550349.922,-26.367,28.320,8.789,15.625,44.922
1586550349.926,-73.730,25.879,6.836,-18.066,21.973
1586550349.930,7.812,28.809,7.812,17.578,-12.695
1586550349.933,95.703,28.809,9.766,61.035,62.988
1586550349.937,19.531,29.785,11.230,23.438,69.824
1586550349.941,-76.172,27.344,12.695,-4.395,21.973
1586550349.945,-30.273,25.391,12.207,12.207,19.043
1586550349.949,83.008,25.879,12.695,46.387,21.973
1586550349.953,57.129,27.832,12.695,38.086,45.410
1586550349.957,-61.523,24.414,11.230,-12.695,34.668
1586550349.961,-49.316,18.066,5.859,-0.977,-1.465
1586550349.965,65.430,22.949,1.953,51.758,-6.348
1586550349.969,87.891,24.902,8.789,66.895,0.488
1586550349.973,-32.715,20.508,14.160,6.836,37.598
1586550349.976,-65.918,22.461,11.230,-25.879,20.996
1586550349.980,34.180,23.926,10.254,17.578,-1.465
1586550349.984,106.445,22.949,11.719,40.039,-14.648
1586550349.988,9.277,24.902,7.812,-13.184,-59.570
1586550349.992,-58.594,23.926,7.324,-31.250,13.672
1586550349.996,-1.465,25.391,6.348,1.953,43.457
1586550350.000,98.145,23.438,4.395,38.086,6.348
1586550350.004,28.320,21.973,4.883,12.695,8.789
1586550350.008,-81.543,25.879,4.883,-21.484,31.738
1586550350.012,-38.086,25.391,5.371,-1.953,43.945
1586550350.015,87.402,25.391,7.324,43.945,82.520
1586550350.019,77.637,25.391,6.348,43.457,60.547
1586550350.023,-44.922,21.484,5.859,-0.488,13.672
1586550350.027,-51.270,20.508,6.348,-1.465,34.180
1586550350.031,54.199,24.414,5.859,36.133,-8.789
1586550350.035,86.914,25.879,8.301,55.176,-52.246
1586550350.039,-19.043,26.855,10.254,17.090,-16.602
1586550350.043,-39.062,27.832,7.324,-0.977,5.859
1586550350.047,44.922,26.367,5.859,36.621,15.625
1586550350.051,115.234,27.344,12.207,69.336,12.207
1586550350.055,22.461,27.832,11.230,24.902,-0.488
1586550350.058,-51.758,30.762,8.301,-12.695,4.883
1586550350.062,4.883,32.227,9.766,2.441,-5.371
1586550350.066,114.746,25.879,11.230,47.852,7.812
1586550350.070,62.500,27.344,12.207,38.574,25.391
1586550350.074,-47.852,31.738,9.277,-11.719,-7.324
1586550350.078,-13.672,28.809,7.812,-8.301,3.906
1586550350.082,103.027,26.855,7.324,35.156,49.805
1586550350.086,95.703,25.879,5.859,41.992,64.941
1586550350.090,-31.250,27.832,3.906,-1.465,40.039
1586550350.094,-44.922,28.809,4.883,-15.137,10.742
1586550350.098,59.082,27.344,8.789,23.926,45.410
1586550350.101,113.281,27.832,9.766,46.387,108.398
1586550350.105,-7.812,27.344,7.812,8.301,68.359
1586550350.109,-57.129,26.855,5.371,-6.348,64.941
1586550350.113,31.738,28.320,4.395,23.438,61.523
1586550350.117,129.395,30.762,3.906,59.082,-18.066
1586550350.121,47.852,28.809,3.906,32.227,45.898
1586550350.125,-53.711,26.367,0.000,-14.648,66.895
1586550350.129,-8.789,27.832,-0.977,4.883,10.254
1586550350.133,111.328,27.832,1.465,53.711,40.039
1586550350.137,94.238,27.344,1.953,48.340,47.852
1586550350.140,-17.090,25.391,1.953,-6.836,13.184
1586550350.144,-12.207,25.879,0.977,-16.602,-27.344
1586550350.148,97.168,26.367,4.883,44.434,-32.227
1586550350.152,110.352,27.832,7.812,61.035,-0.977
1586550350.156,-9.277,28.809,4.883,11.230,6.348
1586550350.160,-18.066,28.809,5.371,5.859,51.270
1586550350.164,89.355,29.785,7.324,47.852,20.508
1586550350.168,166.504,31.250,8.301,77.637,-16.113
1586550350.172,64.941,32.227,7.812,33.203,11.719
1586550350.176,1.953,32.715,7.324,2.441,33.203
1586550350.180,80.566,30.273,8.789,33.203,37.109
1586550350.183,170.898,26.855,8.301,80.566,50.781
1586550350.187,88.379,29.297,4.883,56.152,17.090
1586550350.191,-14.160,32.227,6.836,5.859,-55.664
1586550350.195,34.668,28.320,3.906,3.906,12.207
1586550350.199,153.809,27.832,1.465,46.875,32.715
1586550350.203,124.512,30.273,4.395,50.293,35.156
1586550350.207,-14.160,25.391,1.465,0.977,88.867
1586550350.211,-17.090,23.926,1.465,1.465,27.832
1586550350.215,82.520,24.414,6.836,51.758,20.508
1586550350.219,104.004,21.973,8.789,65.918,66.895
1586550350.223,-13.672,25.391,3.906,8.789,16.602
1586550350.226,-40.039,26.855,0.000,-11.230,-7.812
1586550350.230,51.270,26.367,2.930,22.949,46.387
1586550350.234,121.582,27.344,7.812,59.082,42.969
1586550350.238,9.766,27.832,8.789,24.414,44.922
1586550350.242,-63.477,29.297,4.395,-12.695,38.086
1586550350.246,5.371,30.273,6.348,17.090,38.574
1586550350.250,94.238,28.320,10.742,66.406,42.480
1586550350.254,31.738,29.297,11.230,53.223,2.441
1586550350.258,-71.777,28.320,10.742,6.348,-14.160
1586550350.262,-34.668,27.832,7.812,13.672,42.969
1586550350.265,74.707,32.227,8.789,47.852,86.426
1586550350.269,58.105,35.645,10.254,41.016,45.898
1586550350.273,-63.477,31.250,8.789,-8.301,12.695
1586550350.277,-64.453,28.320,6.348,-9.766,15.625
1586550350.281,58.594,30.762,4.883,33.691,45.410
1586550350.285,108.398,32.227,6.348,39.062,40.039
1586550350.289,-30.273,30.273,1.953,-4.883,2.930
1586550350.293,-84.961,30.762,1.465,-16.113,-40.527
1586550350.297,13.672,32.227,6.348,26.855,-17.578
1586550350.301,101.074,30.762,8.789,53.223,45.898
1586550350.305,8.301,32.227,9.766,13.672,62.012
1586550350.308,-78.125,32.715,8.789,-19.043,74.707
1586550350.312,-11.230,30.762,10.254,5.371,94.727
1586550350.316,104.492,27.832,9.766,52.734,58.105
1586550350.320,54.688,28.809,8.301,47.363,70.801
1586550350.324,-55.664,30.762,6.836,6.836,41.504
1586550350.328,-29.785,24.414,6.836,8.789,0.488
1586550350.332,81.055,24.902,10.254,57.129,15.137
1586550350.336,81.543,28.809,11.230,59.082,36.621
1586550350.340,-39.551,29.785,11.230,-1.953,-1.953
1586550350.344,-53.223,27.344,8.789,-21.484,-77.637
1586550350.348,53.711,23.438,7.812,14.160,-40.527
1586550350.351,119.629,25.879,8.789,38.086,-0.977
1586550350.355,2.441,25.391,7.324,-1.465,36.133
1586550350.359,-64.453,21.484,6.348,-18.066,50.781
1586550350.363,15.137,20.996,4.883,17.090,47.852
1586550350.367,112.305,24.414,4.395,56.152,37.109
1586550350.371,32.227,23.926,1.953,29.297,32.715
1586550350.375,-44.922,23.926,2.441,1.465,21.484
1586550350.379,16.113,23.926,5.371,16.113,39.062
1586550350.383,132.324,25.879,3.906,45.410,35.156
1586550350.387,91.309,27.344,5.371,43.457,30.762
1586550350.390,-47.363,21.484,5.859,-4.883,54.688
1586550350.394,-40.527,20.020,3.906,-11.719,33.691
1586550350.398,65.430,21.973,4.883,35.156,38.574
1586550350.402,89.844,23.438,6.836,50.293,83.008
1586550350.406,-31.738,25.391,5.371,1.953,11.719
1586550350.410,-61.035,25.879,5.371,-11.230,-36.621
1586550350.414,41.504,24.414,7.812,28.809,17.090
1586550350.418,100.586,24.902,6.836,53.711,40.039
1586550350.422,-1.953,25.391,8.301,19.043,21.484
1586550350.426,-52.734,25.879,8.789,-5.371,-20.996
1586550350.430,20.508,27.344,9.766,19.043,-52.246
1586550350.433,120.605,31.250,12.695,51.758,36.133
1586550350.437,46.387,31.250,11.719,22.461,123.047
1586550350.441,-42.969,28.809,12.207,-1.465,46.875
1586550350.445,-6.836,29.785,15.625,26.367,-30.762
1586550350.449,91.309,28.809,11.230,51.758,8.789
1586550350.453,81.055,31.738,8.789,41.016,7.324
1586550350.457,-36.133,30.762,11.230,0.977,50.781
1586550350.461,-45.410,26.367,9.766,0.488,48.828
1586550350.465,63.965,26.367,10.254,49.316,-7.812
1586550350.469,110.840,27.344,10.254,57.617,40.527
1586550350.473,6.348,29.785,7.812,0.000,62.500
1586550350.476,-38.574,26.855,5.859,-18.555,31.738
1586550350.480,50.781,26.855,6.348,23.438,-0.488
1586550350.484,143.066,29.785,8.301,64.453,22.949
1586550350.488,38.574,32.227,6.348,36.621,4.395
1586550350.492,-50.781,31.250,7.324,-0.977,-6.836
1586550350.496,18.066,27.344,7.324,21.973,20.020
1586550350.500,126.465,29.297,4.883,70.312,15.137
1586550350.504,72.266,34.180,10.254,49.316,27.344
1586550350.508,-27.344,32.715,8.789,-10.254,16.602
1586550350.512,-8.789,27.832,5.859,-7.812,-3.418
1586550350.515,88.379,27.344,10.254,42.969,3.418
1586550350.519,87.402,26.855,9.766,43.457,27.832
1586550350.523,-23.438,29.785,5.371,-0.977,38.086
1586550350.527,-27.832,31.738,5.859,-11.230,28.320
1586550350.531,81.543,28.809,7.812,29.785,9.766
1586550350.535,121.582,27.344,7.324,56.152,1.465
1586550350.539,-1.953,27.344,5.859,8.301,19.531
1586550350.543,-52.246,25.879,0.977,-16.602,-10.254
1586550350.547,32.715,25.879,2.441,9.766,-4.395
1586550350.551,109.863,24.414,9.766,44.922,23.926
1586550350.555,20.996,22.461,10.254,21.973,14.160
1586550350.558,-57.617,23.438,10.742,-13.184,23.438
1586550350.562,-0.488,23.438,15.137,12.695,36.133
1586550350.566,110.352,22.461,19.043,68.359,40.527
1586550350.570,75.684,22.949,16.113,56.641,61.523
1586550350.574,-21.973,24.414,13.184,8.301,64.453
1586550350.578,-3.418,22.949,14.160,13.672,80.566
1586550350.582,99.121,21.973,15.625,60.059,81.055
1586550350.586,110.352,23.926,14.160,59.570,39.551
1586550350.590,-9.766,27.344,11.719,3.418,41.992
1586550350.594,-29.785,29.297,12.207,-5.371,70.801
1586550350.598,73.730,28.809,11.719,35.645,86.914
1586550350.601,122.559,26.367,14.160,56.152,65.918
1586550350.605,8.789,23.926,13.184,16.602,3.418
1586550350.609,-52.734,22.461,13.184,-3.906,0.000
1586550350.613,25.879,25.391,16.602,25.879,8.789
1586550350.617,140.137,25.879,17.090,66.406,12.207
1586550350.621,65.918,24.414,12.207,41.016,2.441
1586550350.625,-31.738,24.902,9.766,-5.371,46.875
1586550350.629,21.484,27.832,15.625,5.859,59.570
1586550350.633,131.348,27.344,19.531,50.781,4.395
1586550350.637,95.703,28.809,15.625,45.410,4.883
1586550350.640,-20.508,30.273,11.230,9.277,60.547
1586550350.644,-15.625,25.879,10.254,14.648,50.781
1586550350.648,90.332,26.367,9.766,41.992,39.551
1586550350.652,116.211,29.297,7.812,50.293,18.555
1586550350.656,-3.906,28.809,4.883,8.301,-24.414
1586550350.660,-14.648,28.809,6.836,-15.625,8.301
1586550350.664,105.469,28.809,10.742,23.438,30.273
1586550350.668,169.922,29.297,8.789,48.828,29.785
1586550350.672,62.012,26.855,6.836,6.348,15.625
1586550350.676,-10.254,24.414,3.906,-23.438,55.176
1586550350.680,42.969,22.949,5.371,0.000,57.129
1586550350.683,124.512,20.996,11.719,48.340,41.504
1586550350.687,50.293,20.996,12.207,31.250,5.371
1586550350.691,-50.781,24.902,11.230,-3.906,8.789
1586550350.695,-3.906,29.297,12.207,13.184,0.488
1586550350.699,114.746,26.855,9.766,52.734,-60.547
1586550350.703,94.238,22.949,9.766,56.641,7.812
1586550350.707,-39.062,23.438,10.254,18.555,26.367
1586550350.711,-41.504,23.438,9.766,3.418,-16.602
1586550350.715,75.195,23.438,13.672,31.250,63.477
1586550350.719,114.746,22.461,16.602,44.922,103.516
1586550350.723,-5.859,23.926,11.719,-7.324,82.031
1586550350.726,-43.945,27.344,8.789,-30.273,5.371
1586550350.730,32.715,26.367,12.695,21.973,-4.395
1586550350.734,107.422,25.879,14.160,65.430,52.246
1586550350.738,22.461,25.879,13.672,24.414,13.184
1586550350.742,-60.059,26.367,12.207,-13.184,-14.648
1586550350.746,0.488,23.438,8.789,1.953,-3.906
1586550350.750,104.980,23.438,7.812,47.363,5.371
1586550350.754,57.617,26.367,9.277,33.203,25.391
1586550350.758,-47.852,24.902,8.301,-8.301,43.457
1586550350.762,-25.879,25.879,10.742,-1.953,27.832
1586550350.765,82.031,28.320,13.672,43.457,13.672
1586550350.769,78.613,28.809,12.695,41.992,12.695
1586550350.773,-50.293,24.414,13.672,-7.812,-1.953
1586550350.777,-63.965,24.902,12.695,-20.020,-6.836
1586550350.781,44.922,28.320,10.254,25.391,2.930
1586550350.785,102.051,26.855,10.742,59.570,41.016
1586550350.789,-5.859,27.344,10.742,13.672,24.414
1586550350.793,-64.941,27.344,8.789,-8.789,-9.277
1586550350.797,9.766,26.367,6.836,21.484,3.906
1586550350.801,93.750,28.809,10.254,58.105,-1.465
1586550350.805,14.648,33.203,6.836,34.180,16.113
1586550350.808,-52.734,29.785,3.418,-6.836,-5.859
1586550350.812,3.418,28.809,6.836,8.789,12.207
1586550350.816,111.816,31.738,7.324,59.570,35.156
1586550350.820,74.219,30.273,6.836,49.805,16.113
1586550350.824,-40.527,30.762,7.324,3.906,74.707
1586550350.828,-13.184,30.762,8.301,5.371,93.262
1586550350.832,99.121,28.809,10.742,46.387,48.828
1586550350.836,116.699,28.809,11.230,53.223,38.574
1586550350.840,-8.789,29.297,7.324,6.348,41.992
1586550350.844,-30.273,30.762,7.324,-2.930,-24.902
1586550350.848,67.383,33.203,12.695,34.668,6.836
1586550350.851,118.164,32.715,15.625,54.199,64.453
1586550350.855,1.953,30.273,16.602,11.230,62.012
1586550350.859,-50.293,31.250,16.113,-13.184,69.824
1586550350.863,34.180,29.297,15.137,18.555,41.992
1586550350.867,129.883,28.809,17.578,63.477,43.945
1586550350.871,48.340,30.762,15.137,28.320,37.109
1586550350.875,-44.434,29.297,10.254,-15.625,9.277
1586550350.879,14.648,27.832,8.789,2.930,8.789
1586550350.883,118.164,27.344,9.277,46.875,-10.254
1586550350.887,95.215,26.855,8.789,47.363,-43.945
1586550350.890,-19.043,23.926,8.789,10.742,-13.672
1586550350.894,-19.043,27.832,11.719,3.906,-21.484
1586550350.898,95.215,32.227,11.719,40.527,-37.598
1586550350.902,106.934,26.367,12.207,62.012,7.812
1586550350.906,-21.484,27.832,10.742,10.254,67.871
1586550350.910,-45.410,26.367,10.254,-9.277,63.965
1586550350.914,41.504,23.438,8.789,30.762,69.824
1586550350.918,110.352,26.367,7.324,54.199,116.211
1586550350.922,6.836,25.879,9.277,15.625,27.832
1586550350.926,-53.711,25.391,9.766,-14.160,16.113
1586550350.930,25.391,26.367,11.230,12.695,64.453
1586550350.933,126.465,25.391,11.719,62.988,101.562
1586550350.937,66.895,26.367,10.742,44.434,120.605
1586550350.941,-30.273,24.902,11.719,-6.836,37.598
1586550350.945,13.672,23.926,14.160,5.371,22.461
1586550350.949,131.836,23.926,15.625,62.988,46.875
1586550350.953,108.887,25.879,14.160,58.594,83.496
1586550350.957,-20.020,25.391,10.254,14.648,87.891
1586550350.961,-25.391,22.461,15.625,19.043,69.824
1586550350.965,64.453,24.902,19.531,43.945,104.492
1586550350.969,99.121,22.949,12.207,45.410,89.355
1586550350.973,-25.879,19.531,7.812,0.000,66.895
1586550350.976,-67.871,19.531,9.277,-16.113,125.000
1586550350.980,20.996,21.973,7.812,19.531,100.586
1586550350.984,97.656,24.414,6.348,53.711,33.691
1586550350.988,10.254,25.879,5.859,21.484,-21.484
1586550350.992,-62.988,26.367,4.883,-20.020,-15.137
1586550350.996,-0.977,26.367,7.324,-6.348,28.320
1586550351.000,107.910,28.809,10.254,42.480,16.113
1586550351.004,60.059,32.227,10.254,37.598,-28.320
1586550351.008,-61.035,30.762,9.277,-7.812,-5.371
1586550351.012,-43.945,28.320,9.277,-11.719,29.297
1586550351.015,83.008,27.344,11.719,36.133,31.738
1586550351.019,91.309,30.273,10.742,46.875,12.695
1586550351.023,-31.738,28.809,11.230,-2.441,29.297
1586550351.027,-46.875,25.391,12.207,-0.977,75.195
1586550351.031,46.875,26.855,11.719,47.852,17.090
1586550351.035,115.723,28.320,16.113,65.918,5.371
1586550351.039,0.488,27.832,13.672,18.555,-31.250
1586550351.043,-72.754,23.926,7.812,-5.859,-41.504
1586550351.047,14.160,22.461,8.789,19.531,14.160
1586550351.051,109.375,23.926,11.719,45.410,0.977
1586550351.055,28.320,24.902,11.230,24.902,-8.789
1586550351.058,-59.570,25.879,9.277,-14.160,-21.973
1586550351.062,0.000,24.902,8.301,-6.348,-8.301
1586550351.066,109.375,24.902,10.254,42.480,35.645
1586550351.070,52.734,24.414,13.184,30.762,89.355
1586550351.074,-64.453,23.438,12.695,-18.555,91.797
1586550351.078,-35.156,23.926,11.719,-18.066,59.570
1586550351.082,69.824,22.949,14.160,24.902,32.715
1586550351.086,85.938,24.902,10.254,29.297,-0.488
1586550351.090,-40.527,27.832,7.812,-23.438,22.461
1586550351.094,-64.941,27.344,5.371,-27.832,-12.207
1586550351.098,41.992,26.367,4.883,14.648,-31.250
1586550351.101,113.281,25.391,11.719,38.086,68.359
1586550351.105,11.719,24.414,13.184,4.883,39.062
1586550351.109,-45.410,25.391,10.742,-14.160,-13.672
1586550351.113,31.250,26.855,10.742,9.277,8.789
1586550351.117,118.164,25.391,13.184,53.223,7.324
1586550351.121,36.133,26.367,11.719,35.156,35.645
1586550351.125,-58.105,27.344,8.789,-8.789,17.578
1586550351.129,-8.789,24.414,9.277,7.324,26.855
1586550351.133,113.770,23.926,10.254,56.641,29.785
1586550351.137,85.938,24.414,11.719,53.711,-33.203
1586550351.140,-41.016,23.926,10.254,11.230,-16.113
1586550351.144,-21.973,26.367,10.254,5.859,8.301
1586550351.148,94.727,28.809,12.695,36.133,16.113
1586550351.152,116.211,28.809,13.184,53.223,30.762
1586550351.156,-25.391,27.832,11.719,2.441,32.227
1586550351.160,-44.922,27.832,8.789,-20.508,24.902
1586550351.164,62.500,27.832,7.812,21.484,14.648
1586550351.168,131.836,26.855,9.766,50.293,32.715
1586550351.172,28.320,24.902,12.207,11.230,46.875
1586550351.176,-52.246,23.438,13.672,-19.531,94.727
1586550351.180,21.484,23.926,13.672,9.766,88.379
1586550351.183,132.812,25.391,15.625,55.176,12.207
1586550351.187,91.309,27.344,15.137,33.203,37.109
1586550351.191,-3.906,25.391,12.207,-8.301,19.043
1586550351.195,20.508,24.414,14.648,8.789,14.648
1586550351.199,125.977,23.438,16.602,53.711,49.316
1586550351.203,104.004,22.461,15.137,55.664,77.637
1586550351.207,-28.320,23.438,11.230,10.254,56.152
1586550351.211,-20.996,24.414,12.207,0.000,41.504
1586550351.215,92.773,25.879,10.742,32.715,59.570
1586550351.219,129.883,23.926,10.254,51.758,36.621
1586550351.223,7.324,22.461,11.719,11.230,-6.836
1586550351.226,-42.480,24.414,12.207,-5.371,-15.137
1586550351.230,42.969,23.926,15.137,31.738,-8.789
1586550351.234,118.164,23.438,16.602,65.430,-8.301
1586550351.238,17.090,24.414,14.160,19.531,-40.039
1586550351.242,-65.430,27.832,16.113,-24.902,38.574
1586550351.246,-2.441,27.832,18.066,2.441,77.637
1586550351.250,103.027,22.461,16.113,55.664,-19.043
1586550351.254,37.109,23.926,14.160,49.316,-33.203
1586550351.258,-78.125,27.344,13.184,13.672,-35.645
1586550351.262,-41.504,25.879,15.137,16.113,-16.113
1586550351.265,68.359,22.949,14.648,41.016,0.488
1586550351.269,80.078,24.414,11.230,34.668,16.602
1586550351.273,-33.691,27.832,8.301,-18.555,36.621
1586550351.277,-45.898,27.344,12.207,-20.508,3.418
1586550351.281,54.688,26.367,15.137,27.832,40.527
1586550351.285,104.004,26.855,14.160,46.387,65.918
1586550351.289,-6.348,28.809,12.207,0.977,-22.461
1586550351.293,-62.988,28.809,10.254,-21.484,-41.504
1586550351.297,15.137,24.414,12.207,16.113,-1.953
1586550351.301,109.375,22.461,13.672,53.711,2.930
1586550351.305,24.902,22.461,10.742,26.367,18.066
1586550351.308,-78.613,25.879,8.789,-1.953,0.488
1586550351.312,-30.762,28.809,10.254,9.766,9.766
1586550351.316,87.891,25.391,11.230,50.293,62.500
1586550351.320,51.758,26.367,9.277,43.945,29.785
1586550351.324,-75.195,26.367,8.301,-5.859,-23.926
1586550351.328,-61.035,23.438,6.836,-3.906,9.277
1586550351.332,60.059,22.949,7.812,51.758,12.207
1586550351.336,82.520,25.879,9.277,64.453,12.207
1586550351.340,-35.645,25.391,8.301,14.648,20.996
1586550351.344,-55.664,24.902,8.789,-3.418,-13.672
1586550351.348,53.711,23.438,7.812,24.902,5.859
1586550351.351,127.441,21.484,8.301,51.270,24.902
1586550351.355,16.602,22.461,8.789,14.160,28.320
1586550351.359,-43.945,24.414,8.301,-15.137,14.160
1586550351.363,25.879,26.367,5.859,5.859,41.016
1586550351.367,114.258,24.902,4.395,53.711,19.043
1586550351.371,25.879,23.926,3.418,34.180,6.836
1586550351.375,-70.801,23.438,2.441,-6.836,20.508
1586550351.379,-10.742,25.391,5.371,10.254,20.508
1586550351.383,103.516,23.926,8.789,59.570,15.625
1586550351.387,84.961,22.949,6.836,50.293,6.836
1586550351.390,-41.016,22.949,6.348,-2.930,33.691
1586550351.394,-45.410,20.996,7.812,1.465,8.301
1586550351.398,67.383,23.926,7.812,36.133,17.090
1586550351.402,107.910,24.902,5.371,46.875,41.016
1586550351.406,-12.207,25.391,2.930,4.883,16.113
1586550351.410,-39.551,28.809,5.371,-17.578,-4.395
1586550351.414,61.035,26.367,9.766,17.578,1.953
1586550351.418,139.648,26.367,9.766,48.828,-2.441
1586550351.422,28.809,28.320,7.324,18.555,16.602
1586550351.426,-61.035,25.879,8.301,-8.789,37.598
1586550351.430,5.371,25.391,9.766,16.602,49.316
1586550351.433,112.305,24.414,9.766,61.035,20.996
1586550351.437,49.316,24.902,9.766,37.598,-2.930
1586550351.441,-71.289,24.414,7.812,-8.789,11.230
1586550351.445,-34.668,23.438,8.301,6.836,15.625
1586550351.449,84.473,23.926,8.789,52.734,30.762
1586550351.453,81.543,24.414,7.812,51.758,24.414
1586550351.457,-39.062,25.391,7.812,0.488,2.930
1586550351.461,-34.180,26.367,6.836,-11.719,5.371
1586550351.465,84.961,26.855,7.324,34.180,62.500
1586550351.469,119.629,28.320,6.836,56.152,70.312
1586550351.473,-12.207,27.832,7.812,8.789,39.062
1586550351.476,-75.195,24.902,6.836,-20.020,45.898
1586550351.480,7.324,23.926,5.371,11.230,7.812
1586550351.484,94.238,25.879,9.277,49.316,-25.879
1586550351.488,11.230,25.879,10.254,17.578,16.602
1586550351.492,-67.871,24.902,11.719,-21.484,6.348
1586550351.496,-7.324,26.367,13.184,0.488,3.906
1586550351.500,102.051,25.879,14.160,42.969,36.133
1586550351.504,52.734,24.414,12.695,19.531,36.133
1586550351.508,-47.363,24.902,7.812,-27.832,41.504
1586550351.512,-22.461,24.414,9.277,-16.113,29.785
1586550351.515,82.520,20.508,13.184,41.992,43.945
1586550351.519,86.914,17.090,10.742,43.945,56.641
1586550351.523,-50.781,16.602,8.301,-6.348,32.227
1586550351.527,-70.801,13.672,10.742,-8.789,50.293
1586550351.531,49.316,13.672,14.160,32.715,61.035
1586550351.535,110.840,14.648,14.648,62.988,15.137
1586550351.539,-20.508,12.695,9.277,14.648,-13.672
1586550351.543,-78.613,11.230,8.301,-19.531,-24.902
1586550351.547,13.672,12.695,14.160,21.484,17.578
1586550351.551,117.188,15.625,15.137,56.641,67.383
1586550351.555,38.086,13.672,9.766,10.254,82.031
1586550351.558,-59.082,10.742,8.301,-34.668,46.387
1586550351.562,-14.160,11.719,11.230,-12.695,57.617
1586550351.566,104.004,12.695,10.742,43.945,75.684
1586550351.570,78.125,14.160,9.277,37.598,62.988
1586550351.574,-40.527,17.578,9.766,-12.695,18.066
1586550351.578,-24.414,18.555,10.742,-6.348,24.414
1586550351.582,83.008,16.602,13.184,34.180,28.320
1586550351.586,103.027,16.113,12.207,38.086,50.781
1586550351.590,-24.414,17.090,8.789,-9.277,90.820
1586550351.594,-64.453,14.648,10.742,-6.836,34.668
1586550351.598,38.086,18.555,16.602,34.668,-22.949
1586550351.601,104.492,22.461,18.066,49.316,12.207
1586550351.605,-4.395,17.090,12.695,8.301,74.219
1586550351.609,-63.965,18.066,6.348,-26.367,66.895
1586550351.613,10.742,20.020,7.812,7.324,83.496
1586550351.617,118.652,18.555,12.695,46.387,81.055
1586550351.621,59.082,18.066,10.742,21.973,33.691
1586550351.625,-51.758,20.020,7.812,-18.066,3.906
1586550351.629,-5.371,21.484,9.277,-3.418,-18.066
1586550351.633,121.094,22.461,16.602,58.105,8.301
1586550351.637,90.820,23.438,14.648,62.500,24.414
1586550351.640,-20.996,22.461,7.812,-1.953,1.953
1586550351.644,-13.672,21.484,11.230,-17.578,15.137
1586550351.648,104.492,23.926,12.695,28.320,-12.207
1586550351.652,153.320,24.414,12.207,45.410,27.344
1586550351.656,14.648,24.902,14.648,0.977,60.547
1586550351.660,-20.020,25.391,12.207,-22.949,41.992
1586550351.664,79.590,24.902,9.766,15.137,52.246
1586550351.668,143.555,25.391,10.742,44.922,55.176
1586550351.672,51.758,27.344,10.742,3.418,119.629
1586550351.676,-12.695,24.414,9.766,-18.555,58.105
1586550351.680,63.477,21.973,9.766,-1.465,-33.691
1586550351.683,174.805,23.438,11.230,47.852,6.836
1586550351.687,97.656,27.344,10.742,33.203,56.152
1586550351.691,-19.043,29.785,9.766,-15.137,57.129
1586550351.695,7.812,26.367,13.184,-10.254,75.684
1586550351.699,104.004,26.367,11.719,32.715,49.316
1586550351.703,92.773,28.809,5.859,48.340,16.113
1586550351.707,-32.227,28.809,5.371,-0.488,62.988
1586550351.711,-43.457,29.297,7.812,-13.672,38.086
1586550351.715,76.172,33.203,9.277,27.344,28.320
1586550351.719,123.535,35.645,10.254,51.758,15.625
1586550351.723,-20.996,31.738,10.742,20.508,-26.367
1586550351.726,-72.754,31.738,10.742,6.348,-2.441
1586550351.730,12.695,32.715,11.230,35.645,-28.320
1586550351.734,98.145,31.738,13.184,57.617,30.762
1586550351.738,21.484,34.668,10.742,19.043,73.730
1586550351.742,-75.195,30.273,9.277,-4.883,39.551
1586550351.746,-42.480,27.344,14.648,3.418,42.969
1586550351.750,64.453,28.809,15.137,40.039,65.918
1586550351.754,26.367,30.762,12.695,33.203,77.148
1586550351.758,-105.469,36.133,12.207,-11.230,9.277
1586550351.762,-100.586,32.227,11.230,-11.230,3.906
1586550351.765,27.832,29.297,10.742,30.762,81.543
1586550351.769,47.363,32.715,10.254,44.434,17.090
1586550351.773,-81.543,30.273,14.160,0.488,-11.230
1586550351.777,-100.098,29.785,15.625,-9.277,28.320
1586550351.781,-0.977,30.273,15.137,25.879,49.316
1586550351.785,62.500,30.273,18.066,44.922,64.941
1586550351.789,-57.129,31.250,12.207,12.207,36.133
1586550351.793,-117.188,28.320,7.812,-8.789,-7.812
1586550351.797,-49.805,26.367,13.672,19.043,-1.953
1586550351.801,47.852,27.832,14.648,66.406,14.160
1586550351.805,-9.766,28.809,10.254,24.902,8.301
1586550351.808,-109.375,26.855,10.254,-24.414,58.594
1586550351.812,-72.754,24.902,11.719,0.977,23.438
1586550351.816,40.039,24.902,7.812,49.805,-11.230
1586550351.820,22.461,24.902,4.883,44.434,34.668
1586550351.824,-90.332,26.367,5.859,-10.254,43.945
1586550351.828,-85.449,25.391,7.324,-9.766,75.684
1586550351.832,17.090,24.414,10.742,39.062,32.715
1586550351.836,51.758,26.367,11.230,49.805,-0.977
1586550351.840,-58.594,26.367,8.301,-9.766,35.156
1586550351.844,-96.191,24.414,10.742,-35.156,28.320
1586550351.848,-4.883,26.855,11.719,10.254,41.992
1586550351.851,77.637,27.832,10.254,47.363,17.578
1586550351.855,-18.066,27.832,7.812,5.859,-10.742
1586550351.859,-87.402,25.391,6.348,-25.391,28.809
1586550351.863,-13.184,25.391,7.324,-1.953,46.875
1586550351.867,97.168,26.855,8.301,48.340,46.387
1586550351.871,32.715,24.902,9.766,33.203,12.207
1586550351.875,-67.383,23.926,9.277,-16.602,-0.977
1586550351.879,-26.367,23.926,12.695,10.254,-12.695
1586550351.883,89.355,26.367,14.160,58.105,-35.156
1586550351.887,78.613,27.832,12.207,57.129,-28.320
1586550351.890,-47.363,24.414,11.230,11.719,12.207
1586550351.894,-51.758,24.414,10.254,-6.348,63.477
1586550351.898,53.711,23.926,10.742,31.250,95.215
1586550351.902,100.586,24.902,9.766,52.734,59.570
1586550351.906,-16.113,26.367,5.371,4.395,4.395
1586550351.910,-65.918,26.855,6.348,-11.230,19.043
1586550351.914,19.043,26.367,9.277,24.902,-39.551
1586550351.918,110.352,26.855,9.766,50.781,-26.855
1586550351.922,27.344,28.320,7.324,9.766,31.738
1586550351.926,-71.289,26.855,5.859,-25.391,32.715
1586550351.930,-11.719,27.832,8.301,6.836,44.434
1586550351.933,110.840,27.344,12.207,57.617,25.391
1586550351.937,63.477,26.855,11.230,39.551,9.277
1586550351.941,-50.293,23.438,8.301,-3.418,-15.137
1586550351.945,-20.508,21.484,10.254,7.324,-16.602
1586550351.949,102.051,23.438,8.789,43.945,21.973
1586550351.953,91.309,22.949,10.254,39.062,24.414
1586550351.957,-40.039,22.949,10.742,-8.789,44.922
1586550351.961,-36.621,22.949,9.766,-2.441,26.855
1586550351.965,64.941,25.391,10.742,43.945,41.016
1586550351.969,121.094,29.785,8.301,58.105,-17.578
1586550351.973,21.973,30.273,9.277,20.020,-5.859
1586550351.976,-45.898,31.250,11.230,2.930,11.719
1586550351.980,35.645,28.809,12.207,33.691,-46.875
1586550351.984,129.883,26.855,12.207,59.570,-19.531
1586550351.988,45.898,28.809,11.719,26.855,-10.742
1586550351.992,-32.715,28.320,19.043,-10.254,24.902
1586550351.996,15.625,28.809,20.508,11.719,21.973
1586550352.000,121.094,31.250,17.090,66.406,22.949
1586550352.004,92.773,31.250,17.090,46.875,21.973
1586550352.008,-35.156,30.762,20.508,1.953,39.551
1586550352.012,-32.227,30.273,20.020,0.488,76.172
1586550352.015,102.051,32.227,18.066,36.133,15.137
1586550352.019,143.555,35.156,17.090,52.734,18.066
1586550352.023,20.996,33.691,16.113,16.113,4.883
1586550352.027,-3.418,32.715,15.625,-4.395,-11.719
1586550352.031,105.469,31.738,16.113,27.832,21.484
1586550352.035,178.223,30.273,19.043,58.594,31.250
1586550352.039,51.758,32.227,19.043,14.160,46.875
1586550352.043,-40.039,29.785,17.578,-10.742,30.762
1586550352.047,28.809,29.785,20.020,27.832,22.461
1586550352.051,120.117,34.180,23.926,75.684,45.410
1586550352.055,47.852,29.785,20.996,45.410,26.367
1586550352.058,-49.805,26.367,18.066,6.836,26.367
1586550352.062,-10.254,28.320,17.090,27.832,46.875
1586550352.066,104.980,30.273,17.090,67.871,67.871
1586550352.070,82.031,28.809,17.578,61.035,70.312
1586550352.074,-36.133,26.855,12.695,8.789,-17.090
1586550352.078,-25.879,26.367,8.789,-9.766,-39.551
1586550352.082,91.797,25.879,11.719,25.879,65.430
1586550352.086,126.465,27.344,12.695,39.551,73.730
1586550352.090,13.184,29.297,10.254,-13.672,11.230
1586550352.094,-5.371,29.297,10.742,-24.902,-2.441
1586550352.098,87.891,30.273,12.695,14.160,35.645
1586550352.101,161.621,32.227,11.230,39.551,20.996
1586550352.105,59.570,29.785,10.742,19.531,41.504
1586550352.109,-18.555,29.785,12.207,-2.930,41.504
1586550352.113,52.246,28.320,14.160,9.766,-7.812
1586550352.117,162.598,25.391,18.066,54.199,1.465
1586550352.121,109.375,27.832,16.602,33.691,8.789
1586550352.125,15.137,29.297,15.625,-10.742,20.508
1586550352.129,46.875,29.297,16.113,3.906,13.672
1586550352.133,149.414,27.344,20.508,60.547,1.465
1586550352.137,126.953,27.832,19.531,57.129,18.066
1586550352.140,-4.395,30.762,16.602,2.930,-4.883
1586550352.144,-15.137,27.832,20.020,9.277,13.184
1586550352.148,79.590,24.414,20.508,57.129,40.039
1586550352.152,126.465,24.414,17.578,62.500,25.879
1586550352.156,0.000,24.414,14.648,6.348,19.531
1586550352.160,-61.523,23.926,19.043,-13.672,21.484
1586550352.164,17.090,24.902,21.973,19.531,11.230
1586550352.168,103.027,26.855,20.508,52.246,26.855
1586550352.172,16.602,26.855,18.555,15.625,18.555
1586550352.176,-71.289,27.832,17.578,-17.090,27.344
1586550352.180,-22.461,26.367,20.020,12.207,79.102
1586550352.183,81.055,23.438,20.508,62.500,80.566
1586550352.187,39.062,25.879,20.996,45.410,-10.742
1586550352.191,-73.242,26.367,20.996,-7.812,-39.551
1586550352.195,-46.875,25.879,17.090,-8.301,2.930
1586550352.199,68.359,28.320,16.113,48.340,30.273
1586550352.203,67.383,29.785,18.066,61.523,62.012
1586550352.207,-71.289,29.297,19.043,4.883,44.434
1586550352.211,-83.008,31.250,17.578,-11.719,21.973
1586550352.215,15.137,32.715,17.578,24.414,17.090
1586550352.219,67.871,32.715,20.508,57.129,22.949
1586550352.223,-37.598,34.180,15.625,20.020,24.414
1586550352.226,-93.262,35.156,12.695,0.000,-30.273
1586550352.230,-2.441,33.203,17.090,37.109,-3.418
1586550352.234,91.309,35.156,20.996,73.730,58.594
1586550352.238,-6.836,31.738,19.531,39.062,-23.438
1586550352.242,-113.770,28.320,21.484,1.465,-1.953
1586550352.246,-66.895,31.738,19.531,16.113,62.988
1586550352.250,47.852,30.762,18.555,53.711,73.730
1586550352.254,20.508,30.762,18.555,47.852,72.266
1586550352.258,-97.656,32.715,18.066,7.324,74.219
1586550352.262,-71.777,31.738,19.531,13.184,112.793
1586550352.265,24.414,28.809,17.090,51.758,49.805
1586550352.269,29.785,31.738,14.160,49.316,-11.719
1586550352.273,-75.195,32.715,14.160,-9.277,-11.719
1586550352.277,-95.703,32.227,11.230,-27.344,52.734
1586550352.281,14.160,29.297,6.348,14.648,78.125
1586550352.285,82.031,26.855,4.883,47.363,21.484
1586550352.289,-29.785,28.320,8.789,23.438,12.207
1586550352.293,-84.473,27.832,11.719,3.906,87.891
1586550352.297,-6.836,27.344,14.648,16.113,51.270
1586550352.301,110.840,26.855,19.043,58.594,48.828
1586550352.305,35.645,25.879,15.137,37.598,42.969
1586550352.308,-84.961,24.414,11.719,-10.742,-7.324
1586550352.312,-35.156,25.879,15.625,10.254,53.223
1586550352.316,79.102,23.438,17.090,63.477,78.125
1586550352.320,61.035,22.461,14.160,48.828,93.750
1586550352.324,-55.176,23.926,12.207,-3.906,60.059
1586550352.328,-48.340,21.973,14.648,-2.441,2.441
1586550352.332,76.660,24.902,16.602,27.344,11.230
1586550352.336,128.906,29.297,15.625,33.203,22.949
1586550352.340,-1.953,27.344,13.184,2.441,22.949
1586550352.344,-66.406,26.855,12.207,-15.625,17.578
1586550352.348,28.320,28.809,15.625,19.043,18.555
1586550352.351,121.094,25.879,17.090,50.293,23.438
1586550352.355,20.508,26.855,16.113,15.625,-11.230
1586550352.359,-39.551,28.320,15.625,-12.207,-9.277
1586550352.363,30.762,25.879,16.113,1.953,7.812
1586550352.367,128.906,26.367,20.020,50.293,40.527
1586550352.371,70.801,25.391,21.484,44.434,28.320
1586550352.375,-36.133,24.414,20.508,6.348,51.270
1586550352.379,1.953,25.391,20.020,12.695,45.410
1586550352.383,125.977,25.391,19.531,58.105,-51.758
1586550352.387,127.930,24.902,19.043,68.359,-40.527
1586550352.390,2.441,26.367,16.113,13.184,12.695
1586550352.394,-5.859,24.902,10.742,-5.859,8.789
1586550352.398,104.980,24.414,9.766,30.273,-3.906
1586550352.402,150.391,26.367,11.719,54.199,2.441
1586550352.406,20.508,24.414,14.648,13.184,16.113
1586550352.410,-25.879,23.926,14.648,-9.766,3.906
1586550352.414,48.828,22.949,13.672,25.391,7.812
1586550352.418,128.418,22.949,14.160,60.547,-1.465
1586550352.422,40.039,25.391,10.742,24.902,-16.602
1586550352.426,-47.363,26.367,7.324,-20.020,0.488
1586550352.430,11.719,27.344,5.371,-3.418,21.484
1586550352.433,116.699,27.832,7.324,45.898,71.289
1586550352.437,74.219,28.809,9.766,37.598,73.730
1586550352.441,-34.180,28.320,9.766,-3.906,22.949
1586550352.445,-2.930,28.320,10.254,7.324,-15.137
1586550352.449,106.445,29.785,13.184,55.664,2.930
1586550352.453,104.492,28.320,15.137,60.059,20.020
1586550352.457,-33.691,27.832,13.184,7.324,10.742
1586550352.461,-45.898,32.227,13.672,-7.324,-43.945
1586550352.465,63.477,31.738,17.578,32.227,-8.789
1586550352.469,116.699,30.762,18.555,58.105,28.320
1586550352.473,-9.766,31.738,14.160,16.602,46.875
1586550352.476,-83.496,26.855,12.207,-17.090,35.645
1586550352.480,7.324,26.367,11.719,7.324,8.789
1586550352.484,118.164,28.809,14.648,57.617,61.523
1586550352.488,46.387,26.367,17.090,43.945,102.539
1586550352.492,-52.734,27.344,15.625,-2.930,83.496
1586550352.496,-17.578,27.832,15.625,-4.395,40.039
1586550352.500,107.422,27.344,18.066,43.945,32.227
1586550352.504,84.961,29.297,18.066,47.852,16.113
1586550352.508,-54.199,25.391,16.602,5.859,48.340
1586550352.512,-35.645,26.367,19.531,6.836,61.523
1586550352.515,95.703,28.320,19.043,48.828,61.035
1586550352.519,115.234,24.902,17.578,64.453,-8.301
1586550352.523,-11.230,24.902,19.043,17.578,-10.742
1586550352.527,-45.898,24.902,17.578,-8.301,29.297
1586550352.531,53.711,25.391,16.602,20.996,-2.930
1586550352.535,147.461,26.367,18.066,50.293,20.508
1586550352.539,14.648,23.926,18.066,20.020,39.062
1586550352.543,-92.773,21.973,16.602,-1.953,20.508
1586550352.547,0.977,23.438,16.602,20.020,-0.488
1586550352.551,115.723,24.902,16.602,52.246,-2.930
1586550352.555,47.852,26.855,13.672,27.832,37.598
1586550352.558,-59.570,25.879,15.625,-13.184,84.473
1586550352.562,-20.996,25.391,17.090,1.953,32.227
1586550352.566,101.074,27.832,17.090,50.781,24.902
1586550352.570,80.566,28.320,17.578,47.363,60.059
1586550352.574,-39.062,29.785,14.648,0.488,51.758
1586550352.578,-31.738,28.320,15.625,-3.906,63.965
1586550352.582,88.379,29.785,16.113,41.992,26.367
1586550352.586,134.766,31.250,14.160,69.824,0.488
1586550352.590,0.977,27.344,15.625,13.672,17.090
1586550352.594,-32.227,27.344,17.578,-13.672,59.082
1586550352.598,71.289,29.297,16.602,20.508,55.176
1586550352.601,156.738,28.320,17.578,57.617,17.090
1586550352.605,55.664,30.762,16.602,31.738,-25.879
1586550352.609,-42.969,32.715,17.578,0.488,-20.508
1586550352.613,13.184,29.785,18.066,23.438,4.395
1586550352.617,124.023,28.320,17.578,62.500,3.906
1586550352.621,66.895,29.297,16.113,43.945,-8.789
1586550352.625,-58.594,28.809,15.625,-1.953,27.344
1586550352.629,-36.133,29.297,18.066,6.836,72.266
1586550352.633,69.824,30.273,19.043,41.504,26.855
1586550352.637,76.172,30.273,14.160,34.180,26.367
1586550352.640,-55.176,28.320,11.719,-6.348,29.297
1586550352.644,-82.031,28.809,11.719,-11.719,15.137
1586550352.648,41.504,29.785,13.672,31.738,73.730
1586550352.652,92.773,25.879,16.113,48.828,77.637
1586550352.656,-36.621,27.344,12.207,-7.324,44.434
1586550352.660,-78.613,28.809,10.254,-21.973,1.953
1586550352.664,5.859,28.320,14.160,17.578,-31.250
1586550352.668,96.191,30.273,14.160,55.176,11.719
1586550352.672,15.625,36.621,19.531,32.715,3.906
1586550352.676,-77.148,45.410,30.273,5.859,19.043
1586550352.680,-19.531,49.805,35.156,38.086,-6.348
1586550352.683,108.398,52.734,41.992,75.684,-7.324
1586550352.687,91.797,55.664,45.410,69.824,59.570
1586550352.691,-34.180,48.828,39.062,28.320,68.848
1586550352.695,-35.156,43.945,33.691,10.742,78.125
1586550352.699,84.961,43.457,36.621,60.059,35.156
1586550352.703,97.656,43.945,40.039,71.777,33.203
1586550352.707,-40.527,41.504,37.109,12.695,68.359
1586550352.711,-61.523,38.574,37.109,-3.906,49.805
1586550352.715,36.621,39.551,36.621,30.273,-21.973
1586550352.719,100.586,41.016,35.645,63.965,19.531
1586550352.723,-4.883,39.551,33.203,27.344,45.898
1586550352.726,-62.988,37.109,31.250,-2.930,-3.418
1586550352.730,2.930,38.086,31.738,16.602,-20.020
1586550352.734,84.473,34.668,27.832,51.270,20.508
1586550352.738,13.184,31.250,23.926,31.738,92.773
1586550352.742,-72.266,29.297,24.902,-5.371,34.180
1586550352.746,-25.879,29.297,24.902,7.812,16.602
1586550352.750,83.496,28.809,26.367,48.340,-3.906
1586550352.754,65.430,28.809,27.832,43.945,-15.625
1586550352.758,-56.641,34.668,25.879,5.371,66.895
1586550352.762,-33.203,40.527,30.762,20.508,63.477
1586550352.765,85.449,43.457,36.621,72.266,55.664
1586550352.769,112.305,48.340,39.062,87.402,38.574
1586550352.773,-12.695,49.316,37.598,35.156,24.414
1586550352.777,-52.246,47.852,32.227,2.930,31.250
1586550352.781,58.105,46.387,31.738,47.852,33.691
1586550352.785,149.414,45.898,29.785,67.871,13.184
1586550352.789,51.270,43.945,23.926,14.648,-15.137
1586550352.793,-20.508,40.039,25.879,-4.883,33.203
1586550352.797,35.645,41.504,28.320,22.461,24.414
1586550352.801,121.094,38.574,28.320,61.523,39.551
1586550352.805,51.758,36.133,29.785,39.551,60.059
1586550352.808,-48.340,38.086,25.391,-1.953,29.785
1586550352.812,-1.465,36.133,24.902,6.348,4.883
1586550352.816,123.535,36.621,27.832,45.898,9.766
1586550352.820,122.559,39.062,27.832,52.246,33.203
1586550352.824,-8.301,39.062,29.297,16.113,31.250
1586550352.828,-20.508,37.598,29.297,17.578,10.742
1586550352.832,92.773,39.551,28.320,58.594,39.551
1586550352.836,135.742,39.062,33.691,69.824,-10.254
1586550352.840,6.836,37.109,31.250,24.414,-3.906
1586550352.844,-49.316,37.598,25.391,-2.930,19.531
1586550352.848,49.805,35.156,25.879,24.414,-60.547
1586550352.851,144.531,33.691,27.344,61.035,-35.645
1586550352.855,45.898,34.180,24.902,18.555,-12.207
1586550352.859,-31.738,36.621,24.414,-12.695,16.113
1586550352.863,35.156,41.504,27.832,14.160,23.926
1586550352.867,137.207,40.527,26.855,55.664,23.926
1586550352.871,79.102,39.062,26.855,53.223,15.137
1586550352.875,-26.855,39.551,30.273,10.742,-4.883
1586550352.879,-0.488,38.574,32.227,6.836,36.621
1586550352.883,119.141,38.574,32.715,56.641,78.613
1586550352.887,123.047,38.574,31.250,60.059,96.191
1586550352.890,-14.160,38.574,27.832,12.207,59.570
1586550352.894,-27.832,38.086,26.367,9.766,-12.695
1586550352.898,73.242,36.621,25.391,44.922,2.441
1586550352.902,119.141,35.156,22.461,61.035,43.457
1586550352.906,8.301,34.668,21.484,17.090,27.832
1586550352.910,-41.016,33.203,22.949,-1.953,35.645
1586550352.914,29.785,29.785,17.090,30.762,32.715
1586550352.918,103.027,22.949,6.836,56.641,9.277
1586550352.922,6.348,14.648,3.418,21.484,18.066
1586550352.926,-72.754,10.742,-0.488,-21.973,71.777
1586550352.930,-2.441,12.695,1.953,-11.719,37.109
1586550352.933,107.422,8.789,4.395,38.086,-9.766
1586550352.937,65.918,6.836,-0.977,28.320,9.277
1586550352.941,-62.500,10.254,-3.906,-26.367,15.137
1586550352.945,-61.035,8.789,-6.348,-21.973,9.277
1586550352.949,52.734,8.301,-3.418,25.879,32.715
1586550352.953,74.707,10.742,-1.953,25.391,9.766
1586550352.957,-48.340,12.207,-2.441,-19.531,8.301
1586550352.961,-67.383,11.719,-2.930,-17.090,44.434
1586550352.965,33.203,6.348,-2.441,20.996,3.906
1586550352.969,104.492,-6.348,0.977,41.504,51.270
1586550352.973,11.230,-3.418,-2.441,0.977,93.750
1586550352.976,-51.270,17.578,-5.859,-23.926,40.039
1586550352.980,20.020,26.367,-1.953,1.465,36.621
1586550352.984,120.117,23.438,2.930,44.434,76.660
1586550352.988,44.922,23.438,3.906,21.973,24.414
1586550352.992,-76.172,19.531,1.465,-25.879,-32.227
1586550352.996,-35.645,19.531,0.977,-5.859,-41.504
1586550353.000,86.426,20.508,0.488,45.898,-30.273
1586550353.004,57.129,19.043,-0.488,31.250,-31.738
1586550353.008,-65.430,15.625,2.441,-16.113,-92.285
1586550353.012,-54.688,17.578,4.883,-15.625,-35.645
1586550353.015,57.129,22.949,7.812,33.203,32.715
1586550353.019,81.543,19.043,7.324,54.199,-2.930
1586550353.023,-30.273,17.578,6.348,5.371,24.902
1586550353.027,-48.828,21.484,6.348,-17.578,79.102
1586550353.031,44.922,23.926,10.254,12.695,9.277
1586550353.035,118.652,25.391,12.695,49.316,26.367
1586550353.039,9.766,25.391,10.742,20.508,113.281
1586550353.043,-68.848,20.996,8.789,-20.020,81.055
1586550353.047,1.953,23.438,7.812,-0.488,58.594
1586550353.051,121.094,26.367,8.789,50.781,21.973
1586550353.055,62.500,22.461,4.883,27.832,5.859
1586550353.058,-58.105,20.996,3.418,-15.137,37.109
1586550353.062,-29.785,20.020,7.324,-3.418,51.270
1586550353.066,80.078,18.555,10.254,44.434,75.684
1586550353.070,65.918,19.043,9.277,46.875,55.176
1586550353.074,-54.688,19.043,7.812,-9.766,19.043
1586550353.078,-38.086,21.973,7.812,-14.160,-20.508
1586550353.082,76.172,23.438,11.230,34.180,4.395
1586550353.086,97.168,20.508,11.719,48.828,-25.391
1586550353.090,-35.645,18.555,8.789,8.301,-46.875
1586550353.094,-70.312,19.531,9.766,-8.789,38.086
1586550353.098,28.809,22.461,12.207,18.066,22.461
1586550353.101,113.770,25.879,10.254,54.688,48.828
1586550353.105,29.785,23.926,10.742,23.926,75.684
1586550353.109,-56.641,19.531,12.695,-12.207,49.805
1586550353.113,0.488,21.484,9.277,6.836,20.020
1586550353.117,125.977,24.414,10.254,51.270,-17.090
1586550353.121,73.242,24.414,11.230,41.504,70.801
1586550353.125,-46.387,22.461,9.277,4.883,33.203
1586550353.129,-17.578,21.973,11.230,13.672,41.016
1586550353.133,101.074,22.949,14.160,66.406,78.613
1586550353.137,116.211,26.367,14.648,69.824,38.574
1586550353.140,-19.043,27.832,14.160,11.719,76.172
1586550353.144,-49.316,25.391,14.160,-7.812,26.367
1586550353.148,37.598,24.902,12.695,14.648,30.273
1586550353.152,94.238,27.344,11.719,41.992,139.648
1586550353.156,0.000,29.785,14.648,1.953,108.398
1586550353.160,-46.387,27.832,15.625,-20.996,25.879
1586550353.164,26.367,23.926,12.695,6.348,37.109
1586550353.168,131.348,25.879,14.160,48.828,52.734
1586550353.172,58.105,27.832,15.625,15.625,-8.789
1586550353.176,-48.340,24.902,14.648,-23.438,13.672
1586550353.180,0.000,25.879,14.648,1.953,59.570
1586550353.183,103.027,28.809,17.090,44.434,45.898
1586550353.187,69.824,28.320,16.602,34.668,32.227
1586550353.191,-43.457,28.320,17.090,-1.953,-1.953
1586550353.195,-30.762,26.367,19.043,5.859,9.766
1586550353.199,97.168,26.367,19.043,49.316,30.762
1586550353.203,108.887,24.902,20.508,52.734,6.348
1586550353.207,-33.691,25.391,20.508,-4.395,-12.695
1586550353.211,-55.664,26.367,18.066,-16.602,19.043
1586550353.215,34.668,25.391,22.949,26.367,30.762
1586550353.219,94.238,27.344,23.438,54.688,15.137
1586550353.223,-7.812,27.832,18.555,12.695,1.953
1586550353.226,-60.059,30.273,19.043,-17.090,-0.488
1586550353.230,19.531,31.250,18.555,5.371,3.418
1586550353.234,113.770,28.809,18.555,41.504,20.996
1586550353.238,49.805,30.762,16.602,19.043,17.578
1586550353.242,-53.711,33.691,13.184,-25.879,14.160
1586550353.246,-12.207,29.297,16.602,-13.184,62.012
1586550353.250,108.398,26.855,20.508,42.969,109.375
1586550353.254,91.797,29.297,18.066,37.109,84.473
1586550353.258,-38.574,29.785,17.090,-12.207,42.969
1586550353.262,-48.828,32.227,19.043,-11.719,45.410
1586550353.265,56.152,28.809,19.043,32.715,29.297
1586550353.269,95.215,26.367,19.043,51.758,30.273
1586550353.273,-21.973,29.785,15.137,9.277,-4.395
1586550353.277,-70.801,31.250,14.160,-2.930,-32.715
1586550353.281,18.066,31.250,14.648,31.250,29.297
1586550353.285,118.164,29.785,14.648,69.824,47.852
1586550353.289,21.973,29.785,16.113,32.715,37.109
1586550353.293,-70.312,27.832,15.137,-5.371,33.691
1586550353.297,4.395,29.297,15.625,14.648,0.977
1586550353.301,122.559,32.715,12.207,59.082,41.016
1586550353.305,70.312,35.645,11.230,40.527,42.969
1586550353.308,-29.297,35.156,12.207,-2.441,50.293
1586550353.312,4.883,34.668,9.766,2.441,69.336
1586550353.316,106.934,33.203,15.137,41.504,53.223
1586550353.320,102.539,28.809,14.648,48.340,64.453
1586550353.324,-11.719,29.297,9.766,-1.953,13.184
1586550353.328,-22.949,29.785,12.207,-14.648,-23.926
1586550353.332,65.430,27.344,14.160,27.832,51.758
1586550353.336,119.141,26.855,13.672,63.477,29.785
1586550353.340,7.324,27.344,11.230,19.043,-20.996
1586550353.344,-48.340,26.367,10.742,-10.254,29.297
1586550353.348,49.316,27.344,14.160,19.043,43.945
1586550353.351,141.113,28.320,13.672,51.270,-2.930
1586550353.355,45.410,27.832,12.207,23.438,-30.762
1586550353.359,-37.109,28.809,14.160,-7.324,-42.969
1586550353.363,24.414,28.809,19.531,17.578,-32.227
1586550353.367,127.930,28.320,21.973,61.035,32.227
1586550353.371,83.496,27.832,20.996,43.457,60.547
1586550353.375,-27.832,26.855,18.555,-5.859,29.785
1586550353.379,-17.578,27.344,18.555,-1.953,-0.977
1586550353.383,88.867,28.320,19.043,41.016,24.902
1586550353.387,108.887,29.297,18.066,51.758,123.047
1586550353.390,-4.395,31.738,17.090,8.301,125.977
1586550353.394,-16.113,29.785,16.602,0.488,57.129
1586550353.398,84.961,23.926,19.043,40.527,10.742
1586550353.402,132.324,24.414,19.531,66.895,0.977
1586550353.406,9.766,27.832,18.066,19.531,9.766
1586550353.410,-48.828,25.879,18.066,-10.254,-25.391
1586550353.414,35.156,26.367,16.602,17.578,-9.766
1586550353.418,125.977,30.273,17.578,52.246,28.320
1586550353.422,46.875,32.715,17.578,27.344,17.090
1586550353.426,-41.504,30.762,18.066,-3.418,50.293
1586550353.430,9.766,28.320,18.066,13.184,10.742
1586550353.433,114.258,29.297,18.066,62.500,10.254
1586550353.437,77.148,27.832,17.578,58.594,66.406
1586550353.441,-40.039,27.832,17.578,6.836,34.180
1586550353.445,-35.156,27.832,20.020,15.137,-46.875
1586550353.449,66.406,27.832,20.508,55.664,22.949
1586550353.453,97.656,31.250,17.578,54.688,61.523
1586550353.457,-25.391,28.809,12.695,-9.766,-18.555
1586550353.461,-49.805,28.809,13.184,-22.949,-16.602
1586550353.465,46.875,30.273,14.648,24.414,32.715
1586550353.469,109.863,29.297,14.648,58.105,35.645
1586550353.473,12.207,28.809,15.625,19.043,43.457
1586550353.476,-61.035,25.391,15.137,-10.254,41.016
1586550353.480,17.090,24.414,12.695,20.020,-30.762
1586550353.484,122.070,25.879,14.160,54.199,24.902
1586550353.488,49.316,24.414,15.625,27.832,96.680
1586550353.492,-53.711,22.949,15.625,-7.324,41.992
1586550353.496,-11.230,26.855,13.672,3.906,-0.488
1586550353.500,79.102,29.297,15.137,38.574,0.000
1586550353.504,49.805,25.879,18.555,38.574,9.277
1586550353.508,-61.523,23.926,18.066,-4.883,35.156
1586550353.512,-52.246,25.391,18.066,-8.789,43.457
1586550353.515,61.035,25.879,18.066,34.180,11.230
1586550353.519,111.328,27.832,14.648,52.734,-3.906
1586550353.523,0.000,26.855,12.207,5.859,9.277
1586550353.527,-33.691,26.855,10.254,-18.555,44.922
1586550353.531,59.082,29.785,10.742,10.742,32.227
1586550353.535,132.812,29.297,17.090,52.734,31.250
1586550353.539,26.367,29.297,19.043,17.090,28.320
1586550353.543,-67.383,27.344,15.137,-23.926,-2.441
1586550353.547,5.371,24.414,15.137,1.953,23.438
1586550353.551,116.699,24.414,16.113,47.852,0.488
1586550353.555,42.969,27.344,15.137,36.133,-20.996
1586550353.558,-73.730,27.344,13.184,-6.836,-50.781
1586550353.562,-32.715,28.320,14.160,-1.465,3.906
1586550353.566,84.473,28.809,17.090,46.387,80.078
1586550353.570,88.379,25.879,17.578,53.711,55.176
1586550353.574,-35.645,24.414,19.043,1.465,31.738
1586550353.578,-39.062,26.855,16.113,-8.789,18.555
1586550353.582,70.312,26.855,14.648,30.273,-3.906
1586550353.586,124.512,26.367,17.090,54.688,0.977
1586550353.590,11.719,28.809,16.113,11.719,12.695
1586550353.594,-42.969,25.391,15.625,-15.137,29.785
1586550353.598,41.016,22.949,14.648,17.578,26.855
1586550353.601,120.605,24.414,12.207,58.105,19.043
1586550353.605,35.156,23.926,12.207,26.855,66.406
1586550353.609,-50.781,25.879,14.648,-18.066,111.816
1586550353.613,-6.836,26.855,18.555,3.418,22.949
1586550353.617,100.098,25.879,20.020,57.617,28.320
1586550353.621,62.012,26.367,17.090,48.340,57.129
1586550353.625,-55.664,25.391,16.113,-0.488,63.965
1586550353.629,-32.227,26.855,20.508,2.441,52.734
1586550353.633,97.656,27.832,21.973,53.711,39.551
1586550353.637,109.375,26.855,18.555,63.965,74.219
1586550353.640,-28.809,25.391,14.648,12.695,85.938
1586550353.644,-55.664,23.926,13.672,-13.672,74.219
1586550353.648,44.434,24.414,13.184,15.137,42.480
1586550353.652,109.375,23.926,17.090,49.805,33.203
1586550353.656,0.000,23.438,16.602,14.160,40.527
1586550353.660,-59.082,23.926,13.184,-19.531,83.496
1586550353.664,26.855,23.926,13.672,-1.465,34.668
1586550353.668,131.348,23.926,16.602,41.504,20.020
1586550353.672,50.781,27.344,16.113,20.508,15.625
1586550353.676,-53.711,25.391,14.648,-22.461,-17.090
1586550353.680,-14.160,25.391,16.602,-2.930,-10.742
1586550353.683,106.445,31.738,20.020,52.246,21.484
1586550353.687,84.961,28.809,18.066,46.387,67.383
1586550353.691,-48.828,21.484,16.602,-6.836,60.059
1586550353.695,-34.180,23.438,17.090,-4.395,75.684
1586550353.699,82.520,27.832,12.207,33.691,41.992
1586550353.703,110.352,27.832,10.742,58.105,-20.996
1586550353.707,-0.977,31.250,14.648,17.090,-8.301
1586550353.711,-23.438,34.180,15.137,-1.953,-4.883
1586550353.715,74.219,31.250,16.113,40.527,4.883
1586550353.719,135.742,29.785,16.113,51.270,35.645
1586550353.723,19.531,32.227,13.184,7.324,31.250
1586550353.726,-55.176,31.738,14.160,-12.207,-0.488
1586550353.730,13.184,28.320,14.160,16.602,-15.625
1586550353.734,114.746,31.738,14.160,57.129,27.832
1586550353.738,50.293,33.691,16.602,32.227,47.363
1586550353.742,-44.434,30.273,16.113,-10.742,25.879
1586550353.746,-3.418,31.250,16.602,-2.441,-3.906
1586550353.750,108.887,32.227,19.531,46.875,21.973
1586550353.754,89.844,31.738,21.484,57.617,17.578
1586550353.758,-33.691,29.785,22.461,7.812,-5.371
1586550353.762,-30.273,31.738,22.949,3.906,45.410
1586550353.765,72.266,30.762,23.438,48.828,30.762
1586550353.769,112.793,27.832,21.973,58.594,-6.836
1586550353.773,3.418,31.738,22.461,2.441,4.395
1586550353.777,-29.297,36.133,21.484,-16.602,22.949
1586550353.781,60.059,33.691,17.090,12.207,83.496
1586550353.785,138.184,30.762,14.160,42.480,101.562
1586550353.789,31.250,28.320,14.648,17.090,77.637
1586550353.793,-58.594,24.902,15.137,-12.695,25.391
1586550353.797,-0.488,26.855,13.184,1.465,-0.488
1586550353.801,109.863,29.785,17.090,45.410,35.156
1586550353.805,59.082,26.367,20.508,39.551,77.637
1586550353.808,-59.570,26.367,18.555,-5.371,43.945
1586550353.812,-29.785,28.320,18.066,1.465,3.418
1586550353.816,85.938,25.879,19.531,47.363,44.922
1586550353.820,91.309,25.879,19.531,47.852,80.078
1586550353.824,-22.461,29.297,16.602,-4.883,67.871
1586550353.828,-40.527,29.297,18.555,-9.766,18.555
1586550353.832,43.945,27.344,19.531,35.156,-3.418
1586550353.836,99.121,26.855,18.066,66.406,-21.973
1586550353.840,-6.836,26.855,18.555,25.391,-43.945
1586550353.844,-60.059,25.391,17.578,-6.348,0.488
1586550353.848,31.250,25.879,19.043,21.973,29.785
1586550353.851,130.859,26.855,20.508,55.664,45.410
1586550353.855,41.016,26.367,20.020,20.020,52.734
1586550353.859,-49.316,29.297,19.531,-19.531,25.391
1586550353.863,2.930,32.227,16.113,-0.488,18.066
1586550353.867,111.816,30.273,17.578,40.039,3.906
1586550353.871,71.289,29.297,17.578,30.273,12.695
1586550353.875,-40.527,30.273,14.648,-4.883,19.043
1586550353.879,-14.160,27.344,18.066,2.930,60.547
1586550353.883,92.773,28.320,20.020,41.016,50.781
1586550353.887,111.816,29.297,20.996,61.035,56.152
1586550353.890,-12.207,27.832,21.973,15.625,-8.789
1586550353.894,-37.109,29.297,23.926,-6.836,-51.758
1586550353.898,75.195,29.297,26.855,37.598,26.855
1586550353.902,137.207,27.832,27.832,59.082,56.152
1586550353.906,21.484,28.809,27.832,15.625,33.203
1586550353.910,-44.922,33.691,24.902,-9.277,44.434
1586550353.914,18.555,34.668,21.484,13.184,95.703
1586550353.918,109.863,32.715,24.414,62.500,43.945
1586550353.922,33.203,32.227,24.414,38.086,-10.254
1586550353.926,-59.082,28.809,22.461,-4.883,-9.277
1586550353.930,-13.184,31.738,22.461,8.789,-40.039
1586550353.933,96.680,32.227,21.973,46.387,-4.395
1586550353.937,75.684,28.809,20.020,33.691,20.996
1586550353.941,-44.434,28.320,20.996,-17.090,7.324
1586550353.945,-23.926,27.344,24.414,-7.812,19.043
1586550353.949,96.680,28.320,24.414,37.598,50.781
1586550353.953,130.859,28.320,22.461,54.199,-11.230
1586550353.957,5.371,26.367,20.996,12.695,-9.766
1586550353.961,-43.457,26.855,22.949,-5.859,26.367
1586550353.965,55.176,26.367,24.902,28.320,20.020
1586550353.969,142.090,27.344,24.902,63.965,56.641
1586550353.973,29.785,29.297,24.902,42.969,49.805
1586550353.976,-53.711,28.320,25.391,20.508,5.859
1586550353.980,10.254,26.855,24.902,42.969,15.625
1586550353.984,122.559,26.855,25.879,82.031,51.758
1586550353.988,74.707,31.250,21.973,39.551,48.340
1586550353.992,-37.109,30.273,17.578,-21.484,-5.371
1586550353.996,-2.930,25.879,19.531,-9.277,13.184
1586550354.000,101.074,27.344,26.367,30.273,20.508
1586550354.004,83.008,25.879,26.367,29.785,38.574
1586550354.008,-41.016,23.926,22.949,-7.812,41.992
1586550354.012,-46.387,24.414,25.391,-4.395,33.691
1586550354.015,69.824,25.879,25.391,41.016,41.992
1586550354.019,111.816,26.367,23.926,56.152,15.137
1586550354.023,2.930,25.879,20.996,12.207,6.836
1586550354.027,-44.922,27.344,20.020,-16.113,4.395
1586550354.031,42.480,25.391,22.461,15.137,10.742
1586550354.035,139.648,24.902,24.414,62.500,46.387
1586550354.039,44.922,28.809,26.367,25.391,36.621
1586550354.043,-44.922,28.320,23.926,-17.090,18.555
1586550354.047,13.184,26.367,19.531,6.836,16.602
1586550354.051,122.070,26.367,21.973,57.129,35.156
1586550354.055,71.289,28.809,20.996,51.270,66.406
1586550354.058,-47.363,30.762,18.555,5.859,43.945
1586550354.062,-21.973,29.785,21.973,7.324,55.664
1586550354.066,87.891,31.738,20.508,54.688,79.102
1586550354.070,87.402,32.227,17.578,50.781,71.777
1586550354.074,-33.691,29.785,16.113,-6.348,9.766
1586550354.078,-42.969,30.273,18.555,-11.719,-10.742
1586550354.082,69.336,30.762,21.973,34.668,-7.812
1586550354.086,130.371,29.785,18.066,61.523,-30.762
1586550354.090,11.230,28.320,20.996,24.414,37.598
1586550354.094,-44.434,30.273,23.926,-3.906,15.137
1586550354.098,33.691,32.715,20.996,9.766,20.020
1586550354.101,120.605,30.762,19.043,50.781,79.102
1586550354.105,41.504,31.250,18.066,33.691,48.828
1586550354.109,-48.828,29.297,21.484,2.441,40.527
1586550354.113,-5.371,27.344,21.973,22.949,55.176
1586550354.117,104.492,29.785,17.090,63.477,68.848
1586550354.121,66.895,27.832,15.625,40.039,-3.418
1586550354.125,-59.082,27.344,17.090,-23.438,23.438
1586550354.129,-32.715,27.832,19.043,-28.320,35.645
1586550354.133,79.590,27.832,20.508,25.879,6.836
1586550354.137,109.863,30.762,19.043,50.781,28.809
1586550354.140,-7.812,29.785,19.043,13.672,91.309
1586550354.144,-53.223,29.785,20.508,-3.418,95.215
1586550354.148,41.504,32.715,20.996,24.414,57.129
1586550354.152,132.324,31.250,23.438,55.664,84.473
1586550354.156,39.062,31.250,23.438,27.344,-9.277
1586550354.160,-26.367,29.297,20.020,-3.906,12.695
1586550354.164,34.668,27.344,19.531,10.254,74.707
1586550354.168,115.234,29.297,20.508,56.641,35.645
1586550354.172,40.527,30.273,20.508,37.109,-25.879
1586550354.176,-61.523,29.785,21.973,-2.930,-19.043
1586550354.180,-18.066,28.809,22.461,11.230,3.418
1586550354.183,91.309,28.809,26.367,62.988,39.062
1586550354.187,71.289,29.785,26.367,58.105,63.965
1586550354.191,-39.062,30.762,21.973,4.395,11.719
1586550354.195,-29.297,29.785,21.484,-0.488,14.648
1586550354.199,76.172,32.227,20.508,43.945,59.570
1586550354.203,117.676,32.715,21.484,58.105,87.402
1586550354.207,1.465,28.809,20.996,7.324,58.594
1586550354.211,-37.109,28.320,20.508,-7.324,79.102
1586550354.215,53.223,28.320,20.508,36.133,57.129
1586550354.219,122.070,26.367,19.043,74.219,21.484
1586550354.223,24.414,25.879,17.090,29.785,-28.320
1586550354.226,-45.410,30.273,14.648,-9.277,-12.695
1586550354.230,20.996,27.344,19.043,6.348,48.340
1586550354.234,125.488,21.484,20.508,46.875,-25.391
1586550354.238,55.664,23.438,20.508,35.645,-44.434
1586550354.242,-55.664,24.902,20.996,-5.859,-1.953
1586550354.246,-22.461,27.832,18.555,3.906,2.441
1586550354.250,84.961,30.762,20.996,61.035,29.785
1586550354.254,84.961,30.273,21.973,65.430,71.777
1586550354.258,-40.527,31.250,20.020,-6.836,41.016
1586550354.262,-49.805,28.809,20.020,-15.137,34.180
1586550354.265,63.965,26.855,20.996,35.645,14.648
1586550354.269,112.305,28.320,20.996,51.758,25.879
1586550354.273,0.977,28.320,20.020,-0.977,50.293
1586550354.277,-51.758,28.320,16.602,-25.391,15.137
1586550354.281,29.297,26.855,16.602,12.695,29.297
1586550354.285,120.117,27.832,19.531,51.270,16.602
1586550354.289,28.809,30.273,17.090,24.902,-0.977
1586550354.293,-55.664,28.320,17.578,-7.324,-0.488
1586550354.297,3.906,29.297,18.555,5.859,25.879
1586550354.301,123.047,31.738,15.625,52.246,19.043
1586550354.305,78.613,29.785,17.090,41.992,-3.906
1586550354.308,-43.457,30.273,16.113,-5.371,41.992
1586550354.312,-30.273,29.297,13.672,-4.395,43.457
1586550354.316,68.848,28.809,15.625,36.133,41.992
1586550354.320,93.750,30.762,17.090,58.105,38.574
1586550354.324,-21.973,31.250,18.066,16.113,30.762
1586550354.328,-54.199,30.762,13.672,-3.418,2.930
1586550354.332,48.340,30.762,14.160,44.434,6.348
1586550354.336,109.863,30.273,19.531,72.266,6.836
1586550354.340,3.418,30.762,19.043,13.672,-26.855
1586550354.344,-55.664,32.715,18.066,-16.602,6.836
1586550354.348,17.090,32.715,18.555,20.020,65.430
1586550354.351,116.211,29.785,16.602,62.012,23.926
1586550354.355,36.621,30.762,13.672,28.809,8.301
1586550354.359,-61.035,29.785,17.090,-15.137,35.645
1586550354.363,-19.531,27.832,18.555,-4.883,-4.883
1586550354.367,90.820,29.785,18.555,42.480,8.789
1586550354.371,74.707,31.250,17.090,42.969,76.660
1586550354.375,-44.922,30.762,16.602,-3.906,61.035
1586550354.379,-38.574,31.250,18.066,0.977,41.016
1586550354.383,68.359,30.273,20.020,42.969,51.758
1586550354.387,89.844,28.320,18.066,58.594,28.320
1586550354.390,-34.668,28.809,16.113,10.254,4.395
1586550354.394,-73.730,25.879,18.066,-11.719,-24.902
1586550354.398,27.832,22.949,20.996,27.832,12.695
1586550354.402,109.375,27.344,22.949,57.617,-0.488
1586550354.406,6.348,28.809,20.020,19.531,-21.973
1586550354.410,-61.523,28.320,18.066,-17.090,0.000
1586550354.414,12.695,28.320,18.066,5.371,25.879
1586550354.418,108.398,27.832,20.020,58.105,38.086
1586550354.422,33.691,26.367,21.973,39.551,21.484
1586550354.426,-67.871,26.367,18.066,3.906,41.504
1586550354.430,-36.133,27.832,18.066,20.508,44.922
1586550354.433,67.383,28.320,22.461,57.129,5.859
1586550354.437,58.105,30.762,22.949,49.805,19.043
1586550354.441,-52.246,29.297,21.484,-0.488,65.430
1586550354.445,-46.875,28.320,21.973,-5.859,91.309
1586550354.449,63.965,31.738,21.484,35.156,10.254
1586550354.453,104.492,30.762,19.531,49.316,9.766
1586550354.457,-12.207,30.273,21.484,2.930,84.961
1586550354.461,-59.082,33.203,20.508,-15.137,48.828
1586550354.465,21.973,31.738,22.949,21.484,42.969
1586550354.469,113.770,27.832,24.414,53.711,8.789
1586550354.473,11.719,27.832,20.996,14.648,-28.809
1586550354.476,-79.590,27.344,20.508,-15.625,12.695
1586550354.480,-9.277,25.391,23.438,12.695,28.809
1586550354.484,101.074,26.855,27.344,52.246,54.199
1586550354.488,50.293,28.809,25.879,38.086,92.773
1586550354.492,-64.453,28.809,23.926,-5.859,86.914
1586550354.496,-28.809,31.738,20.996,-1.465,79.590
1586550354.500,90.820,29.297,20.020,49.316,42.969
1586550354.504,95.215,28.809,23.438,56.641,-38.574
1586550354.508,-26.367,29.785,23.438,0.977,-67.383
1586550354.512,-28.809,28.320,23.438,-14.160,-8.301
1586550354.515,71.289,27.344,24.414,27.832,46.387
1586550354.519,112.793,28.809,23.438,51.758,74.219
1586550354.523,10.742,25.879,25.391,12.207,64.453
1586550354.527,-36.133,22.461,26.367,-10.254,16.602
1586550354.531,36.621,23.438,25.879,23.438,22.461
1586550354.535,120.605,24.902,25.391,66.895,32.715
1586550354.539,33.203,27.832,26.855,34.180,-38.086
1586550354.543,-51.758,28.809,28.320,-5.371,-50.293
1586550354.547,8.789,29.297,28.809,12.207,-0.977
1586550354.551,118.652,28.320,28.320,55.176,-0.977
1586550354.555,82.520,29.785,25.879,48.340,64.941
1586550354.558,-34.180,27.344,26.367,10.742,62.012
1586550354.562,-24.414,23.438,24.902,17.090,48.828
1586550354.566,76.660,23.438,22.461,51.270,68.848
1586550354.570,104.004,28.809,22.461,56.152,43.457
1586550354.574,-12.207,31.250,20.996,2.441,15.625
1586550354.578,-39.551,28.809,18.555,-23.438,23.438
1586550354.582,63.965,25.879,17.578,13.672,33.691
1586550354.586,136.719,24.902,19.043,51.758,1.953
1586550354.590,23.926,26.367,19.043,17.090,6.348
1586550354.594,-47.852,24.414,18.555,-15.137,59.570
1586550354.598,25.879,21.973,19.043,6.348,85.938
1586550354.601,121.582,26.855,21.484,48.828,47.852
1586550354.605,46.387,28.809,23.438,33.203,77.148
1586550354.609,-56.152,25.879,22.461,-14.648,65.430
1586550354.613,-5.371,28.320,21.973,0.977,7.324
1586550354.617,115.234,29.297,19.043,52.246,68.848
1586550354.621,79.590,26.855,17.578,47.363,36.621
1586550354.625,-51.270,26.855,21.484,0.488,36.133
1586550354.629,-36.621,27.344,22.949,-1.953,61.035
1586550354.633,76.172,25.391,23.438,44.434,80.566
1586550354.637,107.422,25.879,19.043,50.293,71.777
1586550354.640,-15.625,27.832,18.066,2.441,1.953
1586550354.644,-46.875,25.879,20.996,-7.324,-0.977
1586550354.648,46.387,25.391,17.090,12.207,-3.418
1586550354.652,115.234,26.855,14.160,48.340,41.016
1586550354.656,21.973,29.297,18.066,26.855,33.691
1586550354.660,-52.246,29.785,19.043,-9.766,0.488
1586550354.664,8.789,28.809,18.066,12.695,9.277
1586550354.668,120.605,30.762,18.555,57.617,-24.902
1586550354.672,58.105,28.320,19.531,36.133,-23.438
1586550354.676,-55.176,24.902,19.043,-6.348,62.012
1586550354.680,-25.391,29.785,20.996,9.277,62.012
1586550354.683,92.285,31.738,19.531,65.918,28.809
1586550354.687,89.844,28.809,18.066,71.289,17.578
1586550354.691,-28.809,31.738,17.090,17.090,63.965
1586550354.695,-33.691,31.250,16.113,-1.953,45.410
1586550354.699,72.754,27.344,20.508,25.391,-10.742
1586550354.703,120.605,27.832,22.949,60.059,16.602
1586550354.707,3.418,29.297,19.043,12.207,13.184
1586550354.711,-31.250,29.785,18.066,-19.531,19.531
1586550354.715,58.594,30.273,20.996,21.973,48.828
1586550354.719,133.789,29.785,20.020,53.711,76.172
1586550354.723,29.785,30.762,19.043,8.301,37.598
1586550354.726,-61.523,29.297,20.996,-20.996,-1.465
1586550354.730,2.441,29.785,20.508,12.695,-7.812
1586550354.734,117.188,32.227,18.555,61.523,28.809
1586550354.738,72.754,31.738,18.555,49.316,28.320
1586550354.742,-38.086,29.785,19.531,4.883,2.441
1586550354.746,-15.625,30.762,20.996,-1.465,36.133
1586550354.750,95.703,32.227,21.484,40.527,18.555
1586550354.754,104.492,33.203,20.996,51.758,-35.645
1586550354.758,-24.902,32.227,21.484,11.719,-3.906
1586550354.762,-36.133,30.273,19.043,5.371,-22.461
1586550354.765,72.266,30.762,20.508,33.203,-49.316
1586550354.769,125.488,31.738,20.508,56.641,-24.902
1586550354.773,20.996,31.250,17.090,20.508,13.672
1586550354.777,-41.016,29.297,20.020,0.977,20.508
1586550354.781,26.855,27.344,20.020,33.691,20.508
1586550354.785,117.676,27.832,20.020,69.336,78.125
1586550354.789,26.855,28.320,21.484,39.551,63.965
1586550354.793,-58.105,30.273,18.066,-1.465,19.043
1586550354.797,4.395,32.227,21.973,12.695,-7.324
1586550354.801,112.305,28.320,24.902,51.758,51.270
1586550354.805,77.148,27.832,19.531,41.504,111.328
1586550354.808,-43.457,30.762,18.066,-4.883,101.562
1586550354.812,-27.344,31.738,19.043,-9.277,72.266
1586550354.816,89.355,31.250,17.578,40.039,27.832
1586550354.820,109.863,30.273,17.578,57.617,24.414
1586550354.824,-17.090,29.785,18.066,6.836,9.766
1586550354.828,-46.875,27.832,17.578,-11.230,32.227
1586550354.832,52.734,30.762,18.066,32.227,42.480
1586550354.836,118.652,31.250,17.090,63.965,-21.484
1586550354.840,14.160,29.785,19.043,27.344,24.902
1586550354.844,-54.199,30.273,19.043,5.371,72.266
1586550354.848,13.672,26.855,17.090,28.809,-2.441
1586550354.851,114.258,25.391,19.531,63.477,30.762
1586550354.855,42.969,26.855,18.555,35.156,84.473
1586550354.859,-45.410,24.902,13.184,-14.648,21.973
1586550354.863,-5.859,23.926,13.672,-7.812,-22.949
1586550354.867,94.727,24.902,20.508,41.992,10.742
1586550354.871,83.008,28.320,23.438,53.223,35.156
1586550354.875,-42.480,29.297,24.414,9.766,27.832
1586550354.879,-45.898,31.250,24.414,-1.953,33.691
1586550354.883,73.730,32.715,25.879,31.250,-22.949
1586550354.887,120.605,32.715,26.367,56.152,11.230
1586550354.890,-0.488,33.203,22.949,12.695,19.531
1586550354.894,-31.738,34.180,22.949,-2.930,-25.879
1586550354.898,70.312,35.156,26.855,40.039,37.109
1586550354.902,149.902,34.668,26.367,70.312,41.504
1586550354.906,43.945,34.180,24.902,28.809,11.719
1586550354.910,-48.340,31.250,24.902,-2.930,31.250
1586550354.914,11.230,30.273,23.438,26.367,24.902
1586550354.918,116.699,30.762,25.391,71.777,52.246
1586550354.922,67.383,32.715,25.391,50.781,13.672
1586550354.926,-41.504,33.203,22.949,2.441,-1.465
1586550354.930,-24.414,31.250,23.926,8.301,58.105
1586550354.933,93.750,31.738,27.344,51.758,92.773
1586550354.937,95.703,30.762,25.879,57.617,69.824
1586550354.941,-41.504,28.320,24.902,16.602,19.043
1586550354.945,-43.457,30.273,24.902,13.672,16.113
1586550354.949,66.895,30.762,25.879,50.293,45.410
1586550354.953,108.398,31.250,24.414,61.035,47.363
1586550354.957,2.930,32.227,16.602,13.184,-6.836
1586550354.961,-48.828,29.785,16.602,-13.184,-14.648
1586550354.965,29.785,30.273,21.484,17.090,-17.090
1586550354.969,113.281,29.297,24.902,48.828,1.953
1586550354.973,26.855,28.809,24.902,12.207,17.090
1586550354.976,-52.734,32.227,20.020,-20.508,-36.621
1586550354.980,4.883,32.227,19.531,0.488,14.648
1586550354.984,117.676,32.715,22.461,42.480,55.664
1586550354.988,71.777,31.738,23.438,31.738,-4.883
1586550354.992,-64.453,27.832,20.020,-16.113,-39.551
1586550354.996,-34.180,26.855,20.020,-4.883,-64.453
1586550355.000,92.285,28.809,25.879,48.340,-39.551
1586550355.004,94.727,28.320,26.855,55.664,12.695
1586550355.008,-32.715,25.391,25.391,-0.488,-16.113
1586550355.012,-59.082,25.391,25.879,-13.672,37.598
1586550355.015,41.504,26.367,24.414,29.785,54.199
1586550355.019,108.887,26.855,25.879,65.918,-10.254
1586550355.023,-3.906,27.344,26.855,27.832,44.434
1586550355.027,-57.617,26.367,23.926,-4.395,55.664
1586550355.031,20.996,24.902,23.926,20.996,52.246
1586550355.035,124.023,26.855,25.391,59.570,16.113
1586550355.039,41.504,28.320,26.855,29.297,-11.230
1586550355.043,-73.730,23.926,23.926,-16.602,21.484
1586550355.047,-20.996,24.414,22.461,2.441,26.367
1586550355.051,93.750,27.832,23.438,46.875,42.969
1586550355.055,72.754,28.809,23.438,45.410,53.223
1586550355.058,-44.922,28.809,23.438,4.883,56.641
1586550355.062,-37.598,28.320,21.973,6.348,44.922
1586550355.066,85.938,30.273,22.461,51.270,64.453
1586550355.070,94.238,27.344,23.438,58.594,113.281
1586550355.074,-38.574,28.320,23.926,14.160,61.035
1586550355.078,-51.270,31.738,21.973,0.488,35.645
1586550355.082,53.223,34.668,20.508,24.902,39.062
1586550355.086,115.234,34.668,21.973,44.434,-4.395
1586550355.090,6.348,34.180,19.531,5.371,-10.254
1586550355.094,-42.969,35.645,18.555,-20.020,54.688
1586550355.098,47.363,34.180,18.555,-3.418,97.656
1586550355.101,141.602,36.621,20.996,39.062,31.250
1586550355.105,60.059,36.621,18.066,22.949,-6.836
1586550355.109,-38.086,33.691,15.625,-13.672,19.531
1586550355.113,-7.812,30.762,18.066,1.953,-25.879
1586550355.117,86.914,29.297,19.043,52.734,-0.977
1586550355.121,74.707,30.762,18.555,47.363,35.645
1586550355.125,-41.504,31.738,17.090,-7.812,-40.039
1586550355.129,-37.109,29.297,18.555,-5.859,28.809
1586550355.133,67.383,31.738,20.020,41.504,59.082
1586550355.137,96.191,32.715,21.484,69.336,-11.230
1586550355.140,-20.020,31.250,23.438,27.344,14.160
1586550355.144,-44.922,34.668,21.484,-3.906,22.461
1586550355.148,46.875,35.156,21.484,28.320,19.531
1586550355.152,121.094,33.691,22.461,61.523,48.340
1586550355.156,20.508,34.668,21.973,20.508,29.297
1586550355.160,-62.500,34.668,23.438,-2.441,19.531
1586550355.164,9.277,35.156,21.484,24.902,27.832
1586550355.168,111.816,34.668,21.973,60.547,12.207
1586550355.172,54.199,30.762,21.484,42.480,7.324
1586550355.176,-49.316,29.297,20.508,1.465,54.688
1586550355.180,-14.648,30.762,22.461,8.789,76.660
1586550355.183,101.562,34.180,22.461,50.781,38.086
1586550355.187,102.539,36.621,24.902,57.617,18.066
1586550355.191,-16.113,33.691,23.438,4.883,52.734
1586550355.195,-25.391,30.762,22.949,-8.301,120.117
1586550355.199,73.242,29.785,25.879,38.574,74.707
1586550355.203,122.070,30.273,26.855,60.547,50.293
1586550355.207,8.301,33.203,23.438,18.066,42.480
1586550355.211,-42.969,32.227,21.484,-1.953,-31.738
1586550355.215,38.574,29.785,24.414,23.926,8.789
1586550355.219,136.719,35.156,25.879,64.453,55.664
1586550355.223,52.246,34.668,27.832,41.992,-4.395
1586550355.226,-40.039,31.250,29.785,1.465,-11.719
1586550355.230,12.207,31.250,28.320,15.625,28.320
1586550355.234,112.305,32.715,28.320,64.941,9.766
1586550355.238,77.148,34.180,31.250,58.594,35.645
1586550355.242,-27.344,35.645,28.809,6.348,10.742
1586550355.246,-3.418,36.621,26.855,8.789,37.598
1586550355.250,104.980,36.133,27.344,48.340,101.562
1586550355.254,106.445,39.551,23.926,55.176,47.363
1586550355.258,-21.973,35.645,23.926,17.090,32.227
1586550355.262,-43.457,31.738,25.879,0.977,26.367
1586550355.265,53.223,32.715,26.367,38.574,0.000
1586550355.269,111.816,29.297,26.367,64.453,40.039
1586550355.273,1.953,30.273,26.367,20.996,60.059
1586550355.277,-60.059,29.785,25.879,-9.277,55.664
1586550355.281,10.742,28.809,22.949,13.672,63.477
1586550355.285,118.652,29.785,21.973,53.223,67.383
1586550355.289,52.246,32.227,22.461,24.414,47.852
1586550355.293,-50.781,32.715,23.438,-14.648,2.930
1586550355.297,-8.789,27.832,25.391,12.207,-9.766
1586550355.301,104.004,24.902,25.391,68.359,36.621
1586550355.305,78.613,27.344,24.414,60.547,72.754
1586550355.308,-38.574,32.715,21.484,5.859,64.941
1586550355.312,-25.391,32.715,22.461,-3.906,13.184
1586550355.316,83.984,31.738,26.855,31.738,38.086
1586550355.320,105.469,31.250,26.367,49.805,22.949
1586550355.324,-20.508,29.297,24.902,7.324,-3.906
1586550355.328,-50.781,29.785,25.391,-7.812,35.645
1586550355.332,41.992,31.250,26.855,31.738,55.664
1586550355.336,110.352,32.227,24.902,64.941,48.828
1586550355.340,6.348,29.785,22.949,25.391,65.918
1586550355.344,-58.105,27.832,22.461,-4.883,87.891
1586550355.348,20.508,28.809,20.996,17.578,96.680
1586550355.351,110.840,28.320,20.996,62.500,53.711
1586550355.355,46.387,25.879,23.926,46.875,20.508
1586550355.359,-55.664,26.367,23.926,3.906,56.641
1586550355.363,-18.066,30.762,21.973,6.836,13.184
1586550355.367,101.074,29.297,21.484,48.340,21.484
1586550355.371,97.168,27.832,21.484,52.734,24.902
1586550355.375,-23.926,29.297,23.438,7.324,9.766
1586550355.379,-31.738,27.832,25.879,1.953,-21.973
1586550355.383,67.383,26.855,23.438,40.527,-75.195
1586550355.387,98.633,28.320,21.973,58.105,-8.789
1586550355.390,-21.484,28.809,24.414,18.555,9.277
1586550355.394,-60.547,30.762,22.461,-7.324,-37.109
1586550355.398,30.273,30.762,17.578,15.137,-23.438
1586550355.402,126.465,30.762,19.043,52.734,0.000
1586550355.406,35.645,32.227,20.996,21.484,16.602
1586550355.410,-61.523,30.273,20.996,-13.672,-2.930
1586550355.414,4.883,28.809,19.531,8.789,5.859
1586550355.418,119.141,27.832,21.973,51.758,42.480
1586550355.422,75.195,30.273,25.391,35.645,20.020
1586550355.426,-39.551,32.227,20.508,-6.836,8.301
1586550355.430,-24.414,29.785,14.648,3.906,1.465
1586550355.433,94.238,28.320,17.090,48.340,10.254
1586550355.437,98.145,28.809,18.555,44.434,27.832
1586550355.441,-26.855,28.809,19.043,4.883,28.809
1586550355.445,-35.645,26.367,20.996,-5.371,1.953
1586550355.449,62.500,26.855,19.531,26.855,-8.789
1586550355.453,119.141,29.785,16.113,58.594,49.805
1586550355.457,8.789,29.297,15.625,18.555,35.645
1586550355.461,-54.688,28.320,17.578,-6.348,-52.246
1586550355.465,25.391,30.762,14.648,23.926,-1.465
1586550355.469,120.605,32.715,12.695,61.523,12.207
1586550355.473,41.016,34.668,14.160,30.762,-13.184
1586550355.476,-44.434,36.621,12.207,-15.625,-4.395
1586550355.480,9.766,37.109,12.207,3.906,15.137
1586550355.484,116.699,34.180,15.137,53.223,90.820
1586550355.488,77.637,32.227,15.137,41.016,92.285
1586550355.492,-42.480,31.738,12.207,-4.883,40.039
1586550355.496,-28.809,35.156,15.137,0.488,49.805
1586550355.500,80.078,34.668,20.020,50.293,53.223
1586550355.504,92.773,31.250,20.508,51.758,69.824
1586550355.508,-27.344,32.715,19.531,4.395,64.453
1586550355.512,-35.645,34.668,21.484,5.371,41.016
1586550355.515,64.941,32.227,23.438,46.387,-5.859
1586550355.519,128.906,32.715,23.926,64.941,-4.395
1586550355.523,24.902,32.227,25.391,23.926,46.387
1586550355.527,-38.574,27.832,22.949,4.395,58.105
1586550355.531,39.551,26.855,20.996,34.668,11.230
1586550355.535,127.441,28.320,24.902,68.359,16.602
1586550355.539,46.875,29.297,22.949,35.645,49.805
1586550355.543,-52.734,29.297,20.996,-1.953,31.738
1586550355.547,-9.766,26.367,24.902,18.555,37.109
1586550355.551,104.492,28.809,22.949,67.871,34.668
1586550355.555,87.402,33.203,21.484,77.148,59.082
1586550355.558,-32.227,29.297,25.879,26.367,47.363
1586550355.562,-40.527,25.391,29.297,-2.930,28.809
1586550355.566,66.406,26.855,33.691,33.691,71.289
1586550355.570,103.516,27.344,33.691,49.805,25.391
1586550355.574,-18.066,22.461,28.320,-6.348,10.742
1586550355.578,-48.828,21.484,27.832,-19.043,31.250
1586550355.582,37.598,26.367,29.297,28.320,-1.953
1586550355.586,114.746,25.879,27.832,64.453,15.137
1586550355.590,27.832,24.414,25.879,24.414,39.062
1586550355.594,-42.969,28.320,26.367,-9.766,17.578
1586550355.598,19.043,27.832,25.879,18.066,-4.395
1586550355.601,124.023,28.809,25.879,56.152,55.664
1586550355.605,62.012,28.320,23.438,27.344,59.082
1586550355.609,-46.387,27.344,20.508,-20.508,19.531
1586550355.613,-13.184,26.855,21.484,-1.953,7.324
1586550355.617,89.355,21.973,22.949,55.664,48.828
1586550355.621,94.727,26.367,22.461,61.035,105.957
1586550355.625,-32.227,27.344,23.438,8.789,49.316
1586550355.629,-42.969,24.414,23.926,-7.324,-34.668
1586550355.633,69.336,27.344,24.902,42.969,0.488
1586550355.637,127.930,27.832,26.855,70.801,76.172
1586550355.640,24.414,27.832,26.855,24.414,79.590
1586550355.644,-39.551,28.320,27.832,-1.953,22.461
1586550355.648,43.457,30.273,27.832,34.180,22.949
1586550355.652,133.789,29.297,25.879,73.242,20.996
1586550355.656,32.227,30.762,23.926,38.086,1.953
1586550355.660,-55.664,31.250,25.879,-3.418,11.230
1586550355.664,-4.395,29.785,25.879,8.301,-2.441
1586550355.668,108.887,29.785,21.484,57.129,44.922
1586550355.672,75.684,30.273,22.949,57.617,19.043
1586550355.676,-48.340,33.203,28.809,12.695,6.348
1586550355.680,-32.715,32.227,24.902,9.277,15.625
1586550355.683,86.914,29.785,25.391,50.293,8.301
1586550355.687,100.098,32.227,28.809,51.758,34.668
1586550355.691,-29.785,33.203,26.367,4.395,43.457
1586550355.695,-52.246,32.227,26.367,-5.371,26.855
1586550355.699,49.805,30.762,28.320,27.832,24.902
1586550355.703,105.957,28.809,27.832,53.223,83.984
1586550355.707,0.000,29.785,25.391,14.648,36.133
1586550355.711,-44.434,32.715,25.879,-7.812,-25.879
1586550355.715,39.551,34.668,24.414,22.949,10.254
1586550355.719,132.812,35.645,22.949,57.617,31.250
1586550355.723,54.199,35.156,24.414,16.113,25.391
1586550355.726,-38.574,31.250,24.414,-18.066,-12.695
1586550355.730,-5.371,29.297,27.344,3.906,5.371
1586550355.734,97.656,28.809,30.762,53.223,23.438
1586550355.738,72.266,27.832,28.809,62.988,11.719
1586550355.742,-45.898,32.227,27.832,13.184,64.941
1586550355.746,-30.273,31.738,25.391,14.160,64.941
1586550355.750,91.797,30.762,27.344,65.430,10.742
1586550355.754,119.141,32.227,27.344,68.359,38.574
1586550355.758,-7.812,31.250,23.926,17.578,67.383
1586550355.762,-41.016,32.715,26.855,0.000,42.969
1586550355.765,56.152,30.762,28.809,36.621,1.465
1586550355.769,121.582,28.809,26.855,67.383,16.602
1586550355.773,25.879,29.297,25.391,23.438,37.109
1586550355.777,-31.250,30.273,23.438,-12.207,-4.883
1586550355.781,40.039,30.762,20.020,9.766,-56.641
1586550355.785,138.672,29.785,23.438,62.012,-25.879
1586550355.789,65.430,31.250,25.879,48.340,-0.977
1586550355.793,-33.691,33.203,23.438,2.930,16.113
1586550355.797,6.348,33.691,23.438,5.371,23.438
1586550355.801,120.117,32.227,21.973,55.176,23.926
1586550355.805,102.051,31.250,17.090,62.988,71.289
1586550355.808,-21.484,31.738,19.531,5.859,68.359
1586550355.812,-24.414,30.762,20.020,-9.766,70.312
1586550355.816,60.059,27.832,19.043,31.738,48.828
1586550355.820,93.750,26.367,22.461,62.500,39.551
1586550355.824,-15.137,28.320,23.438,17.578,84.961
1586550355.828,-62.500,26.855,21.973,-3.418,39.551
1586550355.832,33.691,27.832,20.020,37.598,-17.090
1586550355.836,115.234,31.250,19.531,67.383,47.363
1586550355.840,19.531,31.250,19.531,16.113,99.609
1586550355.844,-48.828,29.297,18.555,-29.785,30.762
1586550355.848,7.324,28.809,18.555,-7.324,13.184
1586550355.851,106.445,27.832,20.508,49.316,23.926
1586550355.855,58.105,29.785,20.996,42.969,-6.836
1586550355.859,-52.734,32.715,21.973,-1.953,33.691
1586550355.863,-11.230,35.156,23.438,8.301,51.270
1586550355.867,103.516,34.668,23.438,52.734,12.207
1586550355.871,94.238,32.227,20.996,47.363,24.414
1586550355.875,-28.809,35.645,20.020,-7.324,-7.812
1586550355.879,-38.574,35.645,20.508,-14.648,11.230
1586550355.883,66.406,33.691,20.020,28.320,26.367
1586550355.887,103.027,30.762,21.484,53.711,-21.484
1586550355.890,-11.230,29.785,22.949,16.602,-50.293
1586550355.894,-52.246,31.250,23.438,-9.277,6.348
1586550355.898,36.133,28.809,24.902,17.090,11.230
1586550355.902,129.395,28.320,23.926,58.105,-28.809
1586550355.906,33.203,29.785,22.461,30.762,39.062
1586550355.910,-60.547,28.320,21.973,-7.812,38.574
1586550355.914,-21.973,29.785,18.555,3.906,54.688
1586550355.918,88.867,28.320,17.090,48.828,29.785
1586550355.922,60.059,24.902,20.508,39.551,-29.297
1586550355.926,-49.316,28.320,20.508,-13.184,32.227
1586550355.930,-27.832,30.762,19.531,-11.230,47.363
1586550355.933,75.684,28.320,23.926,39.062,-9.766
1586550355.937,94.238,31.250,24.902,46.387,30.762
1586550355.941,-25.879,30.273,20.508,-5.371,65.918
1586550355.945,-51.758,26.855,20.020,-10.254,48.828
1586550355.949,53.711,28.320,23.438,50.293,47.852
1586550355.953,116.211,28.320,21.973,83.496,65.430
1586550355.957,10.742,30.762,16.602,30.762,0.977
1586550355.961,-45.410,31.250,18.555,4.395,21.973
1586550355.965,20.996,26.855,20.508,23.926,59.082
1586550355.969,116.699,28.320,19.043,58.105,39.551
1586550355.973,57.129,28.320,18.555,24.414,25.391
1586550355.976,-37.109,29.297,20.508,-23.926,-30.273
1586550355.980,-5.371,31.738,21.484,-8.301,24.902
1586550355.984,109.863,33.691,21.484,34.180,35.156
1586550355.988,85.449,32.715,20.508,38.574,-2.441
1586550355.992,-40.527,30.762,19.043,-1.953,43.945
1586550355.996,-25.879,30.273,18.066,-6.348,33.203
1586550356.000,79.102,28.809,18.555,39.551,49.316
1586550356.004,93.262,26.855,20.996,52.734,71.777
1586550356.008,-11.719,23.438,23.438,7.812,54.688
1586550356.012,-31.250,24.902,22.949,9.277,1.953
1586550356.015,54.688,33.691,20.020,34.180,-33.691
1586550356.019,123.047,38.574,16.113,54.688,18.066
1586550356.023,22.461,36.621,15.137,41.992,58.105
1586550356.027,-53.711,36.133,14.648,-0.977,18.555
1586550356.031,17.578,39.551,13.672,12.695,-44.434
1586550356.035,119.141,36.621,15.625,65.430,-28.320
1586550356.039,53.711,34.180,14.648,41.016,8.301
1586550356.043,-45.410,35.645,12.207,-9.766,35.645
1586550356.047,2.930,35.645,14.648,5.371,42.969
1586550356.051,110.840,33.691,14.160,53.223,13.184
1586550356.055,81.543,37.109,13.672,41.016,102.051
1586550356.058,-21.973,39.551,16.602,-7.324,148.926
1586550356.062,-11.719,37.109,14.648,1.465,62.012
1586550356.066,71.777,31.250,16.113,42.969,28.809
1586550356.070,117.188,29.297,20.996,55.664,-12.207
1586550356.074,6.836,34.180,15.137,10.742,-10.742
1586550356.078,-48.828,32.227,14.648,-4.883,42.480
1586550356.082,46.387,32.715,19.043,27.344,23.438
1586550356.086,139.648,35.645,20.508,62.988,29.785
1586550356.090,41.504,34.668,20.020,39.551,50.293
1586550356.094,-43.457,33.203,20.020,6.836,37.598
1586550356.098,16.113,31.250,22.949,17.578,75.684
1586550356.101,125.488,34.668,24.414,63.965,110.840
1586550356.105,61.523,33.203,25.391,46.387,35.645
1586550356.109,-52.734,30.762,27.344,-2.441,6.836
1586550356.113,-20.508,31.250,26.855,3.906,26.367
1586550356.117,105.957,31.250,24.414,45.898,37.598
1586550356.121,125.000,33.691,23.438,62.012,-8.789
1586550356.125,-2.930,33.691,23.438,17.090,7.812
1586550356.129,-18.066,33.691,22.949,-0.488,60.059
1586550356.133,90.820,35.156,21.973,34.180,22.461
1586550356.137,134.766,35.156,22.461,61.523,21.484
1586550356.140,23.926,35.156,20.508,19.043,14.648
1586550356.144,-20.996,35.645,20.508,-2.441,11.230
1586550356.148,50.293,33.691,20.508,34.668,33.691
1586550356.152,135.254,34.668,18.066,69.824,-1.465
1586550356.156,49.805,36.621,22.461,43.945,-24.902
1586550356.160,-33.203,39.062,22.949,-3.418,-20.508
1586550356.164,15.625,40.527,22.949,3.418,-51.270
1586550356.168,116.211,37.109,28.320,57.129,-31.738
1586550356.172,81.055,35.156,28.809,54.688,12.207
1586550356.176,-37.109,37.109,27.344,7.812,-5.859
1586550356.180,-16.113,36.133,28.809,21.484,-1.465
1586550356.183,112.305,36.621,31.738,76.172,39.062
1586550356.187,138.184,41.016,31.738,65.918,21.484
1586550356.191,21.973,42.969,33.691,13.672,28.320
1586550356.195,2.441,44.922,36.133,22.949,90.820
1586550356.199,89.355,42.969,37.598,58.105,68.848
1586550356.203,152.344,44.922,38.086,83.008,62.012
1586550356.207,39.551,44.922,37.598,52.734,104.980
1586550356.211,-20.020,42.969,36.133,12.207,31.250
1586550356.215,62.012,45.410,38.086,37.598,-36.621
1586550356.219,143.066,45.898,41.504,87.402,1.465
1586550356.223,55.176,44.922,38.086,56.641,35.156
1586550356.226,-45.410,46.387,39.551,15.625,23.926
1586550356.230,-5.371,46.387,42.480,38.086,42.480
1586550356.234,104.004,46.387,43.457,92.285,41.504
1586550356.238,96.680,47.363,45.898,78.125,31.738
1586550356.242,-17.090,48.828,44.922,15.625,49.805
1586550356.246,-7.812,51.758,40.527,14.160,12.207
1586550356.250,99.609,51.270,41.992,58.105,10.254
1586550356.254,127.930,50.293,46.387,85.938,41.016
1586550356.258,13.672,51.270,44.434,47.852,63.477
1586550356.262,-30.762,48.828,45.898,22.949,37.109
1586550356.265,53.711,47.852,46.875,63.965,-2.930
1586550356.269,127.441,48.340,43.945,91.797,0.000
1586550356.273,24.414,48.828,42.480,41.504,72.754
1586550356.277,-35.156,47.363,39.551,-3.418,73.730
1586550356.281,34.180,45.898,39.551,14.648,69.824
1586550356.285,124.512,44.434,40.527,64.941,56.641
1586550356.289,57.617,41.504,39.551,58.594,30.273
1586550356.293,-42.969,41.992,38.086,14.160,22.461
1586550356.297,1.465,43.457,39.551,19.531,-19.043
1586550356.301,96.680,39.551,36.621,64.453,14.648
1586550356.305,79.590,42.969,32.227,50.781,19.043
1586550356.308,-20.020,44.922,33.203,-8.301,16.602
1586550356.312,-16.113,43.945,34.180,-16.602,39.551
1586550356.316,76.172,43.457,33.203,31.738,12.207
1586550356.320,120.117,41.992,32.715,62.500,8.789
1586550356.324,8.301,42.480,33.203,20.508,6.836
1586550356.328,-41.992,41.016,33.203,-0.488,39.062
1586550356.332,44.922,38.574,34.180,33.691,83.496
1586550356.336,132.812,39.062,33.691,65.430,51.758
1586550356.340,37.598,41.016,31.250,31.250,20.020
1586550356.344,-23.438,40.039,31.738,11.719,5.859
1586550356.348,41.016,39.551,33.203,30.762,-6.348
1586550356.351,137.207,38.574,34.668,64.941,32.227
1586550356.355,98.633,39.551,33.691,44.434,42.969
1586550356.359,-18.555,41.016,32.715,-1.465,23.926
1586550356.363,-1.465,37.598,34.180,15.137,14.160
1586550356.367,116.699,39.062,35.645,57.617,-56.641
1586550356.371,116.699,39.551,34.668,65.918,19.531
1586550356.375,-18.066,37.598,31.738,21.484,68.848
1586550356.379,-44.434,37.109,34.668,13.672,42.480
1586550356.383,58.105,36.133,36.621,54.688,41.016
1586550356.387,114.258,39.062,38.086,77.148,75.195
1586550356.390,-3.418,39.062,37.109,32.715,40.527
1586550356.394,-51.758,36.133,35.645,1.465,-1.465
1586550356.398,39.062,40.039,37.109,29.785,26.367
1586550356.402,136.230,43.945,39.062,72.754,32.715
1586550356.406,54.199,43.457,40.039,51.270,15.137
1586550356.410,-40.039,40.527,40.039,16.113,-10.254
1586550356.414,1.465,41.504,41.992,33.203,2.930
1586550356.418,120.117,44.434,42.969,78.125,43.457
1586550356.422,101.562,45.410,40.039,62.012,27.832
1586550356.426,-15.625,47.363,40.527,12.695,26.855
1586550356.430,-15.137,43.945,39.062,13.672,36.133
1586550356.433,77.148,41.016,38.574,54.688,31.738
1586550356.437,96.680,43.457,37.598,64.453,30.273
1586550356.441,-21.973,41.992,30.762,23.438,6.348
1586550356.445,-47.852,42.480,32.715,15.625,47.363
1586550356.449,49.805,42.969,36.621,49.805,62.988
1586550356.453,128.418,44.922,37.598,76.660,20.020
1586550356.457,39.551,45.898,36.133,36.133,21.484
1586550356.461,-29.297,44.434,39.062,2.441,16.602
1586550356.465,33.203,42.969,40.527,25.879,12.207
1586550356.469,126.953,41.992,41.016,69.824,53.223
1586550356.473,53.711,43.945,41.504,54.199,-25.879
1586550356.476,-49.316,43.945,39.062,11.230,-66.895
1586550356.480,-0.488,43.945,36.621,20.508,-2.441
1586550356.484,116.211,43.457,35.645,63.477,51.758
1586550356.488,94.727,45.898,35.645,56.152,34.180
1586550356.492,-30.762,46.875,36.133,14.160,-6.836
1586550356.496,-35.645,39.551,36.133,12.695,14.648
1586550356.500,72.754,40.039,32.227,52.734,12.695
1586550356.504,105.957,45.898,31.738,69.336,39.551
1586550356.508,-12.695,41.504,34.668,23.926,34.180
1586550356.512,-41.016,36.133,29.785,1.953,-5.371
1586550356.515,52.734,37.598,31.250,41.992,31.738
1586550356.519,125.488,36.621,34.668,72.266,15.137
1586550356.523,22.949,35.645,31.738,26.855,16.602
1586550356.527,-51.270,35.645,30.273,-9.277,29.297
1586550356.531,8.301,34.668,27.344,10.742,26.855
1586550356.535,123.047,34.668,29.785,55.176,65.918
1586550356.539,79.590,38.086,30.762,37.109,50.781
1586550356.543,-28.320,41.504,27.832,-3.418,24.902
1586550356.547,1.953,40.527,31.250,18.555,25.391
1586550356.551,110.352,38.574,34.668,73.242,-30.273
1586550356.555,105.469,39.551,34.668,72.754,26.367
1586550356.558,-29.785,39.062,34.180,19.531,49.316
1586550356.562,-43.457,38.086,32.227,11.230,-20.996
1586550356.566,64.453,39.551,32.227,51.270,19.531
1586550356.570,116.699,39.551,32.227,77.637,72.266
1586550356.574,6.348,40.039,33.203,41.504,90.332
1586550356.578,-35.645,41.016,32.227,15.137,56.641
1586550356.582,52.246,41.992,30.762,40.527,15.137
1586550356.586,133.789,40.527,33.691,71.777,26.855
1586550356.590,37.109,38.574,28.809,30.273,67.383
1586550356.594,-62.012,35.645,24.902,-0.977,44.922
1586550356.598,-1.953,35.645,28.809,21.973,-1.465
1586550356.601,122.070,40.527,28.809,59.570,9.277
1586550356.605,72.754,38.574,29.785,45.410,43.457
1586550356.609,-33.203,34.668,31.250,-5.859,72.266
1586550356.613,-8.301,36.133,28.320,1.953,77.637
1586550356.617,92.285,35.645,29.297,53.711,19.531
1586550356.621,99.609,34.668,27.832,55.176,14.160
1586550356.625,-22.461,33.203,25.879,4.883,65.430
1586550356.629,-39.551,32.715,23.438,4.883,30.273
1586550356.633,59.570,31.250,25.391,55.664,10.742
1586550356.637,112.793,31.738,27.344,77.148,37.598
1586550356.640,10.254,31.738,28.320,34.668,78.613
1586550356.644,-36.133,30.762,27.344,-0.977,52.734
1586550356.648,41.992,33.203,25.879,20.508,29.297
1586550356.652,130.371,32.227,27.344,62.500,40.039
1586550356.656,49.316,31.250,28.809,40.527,33.203
1586550356.660,-33.691,31.738,26.855,12.207,12.207
1586550356.664,6.348,29.297,28.320,28.320,-41.992
1586550356.668,111.328,27.832,27.832,76.660,-25.391
1586550356.672,94.727,29.785,23.926,65.918,14.160
1586550356.676,-41.504,28.809,23.926,3.906,-2.441
1586550356.680,-42.480,29.297,26.855,-2.441,58.594
1586550356.683,79.590,32.715,28.320,42.480,86.914
1586550356.687,116.211,33.203,27.832,57.617,23.926
1586550356.691,2.930,34.180,27.344,11.719,-8.301
1586550356.695,-32.715,33.203,26.367,-0.977,0.000
1586550356.699,55.176,32.715,24.414,38.574,11.230
1586550356.703,125.977,31.738,22.949,64.453,57.129
1586550356.707,22.461,29.785,26.367,20.508,75.684
1586550356.711,-52.246,29.297,25.391,-7.324,41.504
1586550356.715,14.160,29.785,24.902,13.184,75.195
1586550356.719,110.352,28.809,26.855,54.199,107.910
1586550356.723,38.574,28.320,25.879,41.992,34.180
1586550356.726,-57.129,28.809,26.367,2.441,-41.992
1586550356.730,-9.766,26.855,28.320,14.648,-33.203
1586550356.734,104.980,27.344,27.832,62.012,11.719
1586550356.738,92.773,30.762,30.273,60.059,37.598
1586550356.742,-26.367,31.250,29.785,-0.488,34.180
1586550356.746,-32.715,28.320,26.855,-13.184,17.090
1586550356.750,71.777,27.832,27.344,34.180,16.113
1586550356.754,118.164,28.809,26.855,53.223,58.105
1586550356.758,-11.230,28.320,26.855,5.371,66.406
1586550356.762,-46.387,24.902,28.809,-3.906,24.414
1586550356.765,47.363,25.391,31.738,39.062,11.719
1586550356.769,121.094,25.879,30.273,70.801,-3.906
1586550356.773,24.414,23.438,31.250,34.668,18.066
1586550356.777,-62.988,23.438,31.738,-0.977,19.043
1586550356.781,8.789,24.414,32.227,17.578,-1.953
1586550356.785,126.465,24.902,34.180,61.523,41.016
1586550356.789,73.242,27.832,31.738,45.898,84.473
1586550356.793,-36.133,31.738,30.762,-3.418,43.457
1586550356.797,-2.441,31.738,28.320,4.395,-17.578
1586550356.801,97.656,31.738,27.344,41.504,2.441
1586550356.805,86.914,33.203,27.832,41.992,70.312
1586550356.808,-26.855,33.691,25.879,1.953,96.680
1586550356.812,-35.156,32.715,22.461,0.000,39.062
1586550356.816,73.730,32.715,22.461,49.316,-3.906
1586550356.820,123.047,32.227,25.879,67.871,3.906
1586550356.824,-2.441,30.762,27.832,22.461,-3.418
1586550356.828,-50.781,31.250,27.832,1.465,12.207
1586550356.832,41.992,32.227,26.367,25.391,-0.488
1586550356.836,137.207,32.715,26.855,65.918,-8.789
1586550356.840,40.527,34.180,25.879,35.645,-37.109
1586550356.844,-56.152,36.621,21.973,-17.578,-10.254
1586550356.848,-7.324,35.645,21.484,9.277,37.109
1586550356.851,113.281,34.180,20.996,72.266,20.996
1586550356.855,83.496,33.691,25.391,51.270,50.781
1586550356.859,-41.504,30.762,31.250,-15.137,65.430
1586550356.863,-25.879,27.832,27.832,-13.184,58.105
1586550356.867,81.543,29.785,27.344,31.738,35.645
1586550356.871,84.961,26.855,35.645,41.992,4.883
1586550356.875,-33.203,25.879,35.645,0.488,-2.441
1586550356.879,-43.945,29.297,34.180,-6.348,19.043
1586550356.883,51.270,28.320,30.762,39.062,21.484
1586550356.887,118.164,28.809,28.320,64.453,21.484
1586550356.890,5.371,28.809,28.320,6.348,10.254
1586550356.894,-50.293,30.762,26.367,-27.832,53.711
1586550356.898,30.273,29.785,29.297,15.137,75.195
1586550356.902,108.398,28.809,33.691,63.965,51.270
1586550356.906,30.762,33.203,35.156,43.457,50.781
1586550356.910,-57.617,34.668,32.715,4.883,16.602
1586550356.914,-8.301,35.156,30.273,13.184,5.371
1586550356.918,102.051,38.086,29.785,55.664,10.742
1586550356.922,79.102,37.109,29.785,45.898,29.785
1586550356.926,-29.297,35.645,32.227,-5.859,28.809
1586550356.930,-28.809,37.109,31.738,-3.906,-3.418
1586550356.933,67.871,32.715,31.250,41.992,-9.766
1586550356.937,100.586,32.227,31.250,57.129,12.695
1586550356.941,-13.672,34.668,28.320,10.254,6.348
1586550356.945,-47.852,32.715,28.809,-6.348,43.945
1586550356.949,49.316,33.691,29.297,37.598,47.852
1586550356.953,126.953,33.691,30.273,71.777,18.555
1586550356.957,25.879,36.133,32.715,37.598,24.902
1586550356.961,-48.340,37.109,32.227,0.977,-19.043
1586550356.965,19.043,34.668,33.203,21.484,-83.008
1586550356.969,123.535,34.180,33.203,72.266,-22.461
1586550356.973,66.895,35.156,27.344,53.711,-2.930
1586550356.976,-39.551,34.668,24.414,10.254,10.254
1586550356.980,-13.184,34.668,23.438,13.184,3.906
1586550356.984,94.727,34.180,24.414,52.246,-24.902
1586550356.988,83.984,34.668,24.902,43.945,77.637
1586550356.992,-40.039,35.645,26.855,-6.836,42.480
1586550356.996,-46.875,34.180,29.297,-2.930,-28.320
1586550357.000,67.383,35.645,30.273,37.109,5.371
1586550357.004,113.281,36.133,30.273,50.781,5.859
1586550357.008,-0.488,33.691,28.320,8.789,-14.160
1586550357.012,-29.785,35.645,29.785,0.977,-7.812
1586550357.015,59.082,36.133,31.250,40.039,26.367
1586550357.019,127.441,33.691,33.203,69.336,43.457
1586550357.023,40.039,34.180,32.227,32.227,50.781
1586550357.027,-42.969,35.645,29.785,-10.254,72.266
1586550357.031,2.441,34.668,28.809,5.371,48.340
1586550357.035,107.422,36.133,31.250,53.223,37.109
1586550357.039,75.684,38.086,32.715,39.551,84.961
1586550357.043,-28.809,35.645,34.180,2.930,52.734
1586550357.047,-13.184,35.156,34.668,13.672,3.906
1586550357.051,100.098,34.180,35.156,57.129,28.809
1586550357.055,88.867,35.156,37.598,63.965,50.293
1586550357.058,-35.156,33.691,36.621,17.090,11.230
1586550357.062,-38.574,33.691,33.691,3.418,-53.711
1586550357.066,64.941,33.203,33.203,35.156,-37.109
1586550357.070,120.605,31.738,33.203,59.082,38.574
1586550357.074,1.953,32.227,29.785,13.672,37.109
1586550357.078,-59.082,30.273,27.832,-9.277,36.133
1586550357.082,24.414,29.785,29.297,28.320,29.785
1586550357.086,119.141,29.785,28.809,69.336,19.043
1586550357.090,46.387,27.832,25.879,44.922,44.434
1586550357.094,-38.086,27.832,24.902,6.348,20.020
1586550357.098,7.812,30.273,24.902,11.230,10.742
1586550357.101,120.605,32.715,25.879,58.594,45.410
1586550357.105,72.266,29.297,25.391,47.363,45.410
1586550357.109,-54.199,31.250,24.414,-6.836,19.043
1586550357.113,-26.855,32.227,24.414,-1.465,13.672
1586550357.117,87.891,26.367,27.832,41.016,17.578
1586550357.121,97.656,25.391,26.367,48.828,72.266
1586550357.125,-28.320,33.203,20.508,2.930,87.402
1586550357.129,-48.340,38.574,20.508,-9.277,59.082
1586550357.133,48.828,35.156,23.438,35.645,74.219
1586550357.137,113.281,33.203,24.414,67.871,79.102
1586550357.140,12.695,33.203,24.902,21.973,19.531
1586550357.144,-39.551,33.203,26.855,-5.371,20.996
1586550357.148,34.180,32.715,27.344,22.949,56.152
1586550357.152,125.000,35.156,26.855,64.453,50.293
1586550357.156,64.941,36.621,30.273,50.781,29.785
1586550357.160,-32.227,35.645,29.297,10.254,43.457
1586550357.164,2.930,34.180,25.879,16.113,66.895
1586550357.168,106.445,30.762,24.902,55.664,43.457
1586550357.172,80.078,30.762,24.414,49.805,56.641
1586550357.176,-35.645,32.227,24.902,5.371,63.477
1586550357.180,-28.320,30.762,26.855,3.906,38.086
1586550357.183,83.984,32.227,25.391,45.410,6.348
1586550357.187,126.465,35.645,24.414,63.965,54.199
1586550357.191,19.043,36.133,26.855,27.344,83.008
1586550357.195,-24.414,34.180,27.344,19.531,1.953
1586550357.199,52.734,33.203,24.902,49.316,-27.832
1586550357.203,130.859,36.621,24.414,63.477,42.480
1586550357.207,42.969,38.574,21.973,20.508,29.785
1586550357.211,-28.320,36.133,21.973,-6.836,-7.812
1586550357.215,33.691,37.598,20.996,17.090,-21.973
1586550357.219,126.953,39.551,22.461,58.594,27.832
1586550357.223,63.965,36.621,26.367,38.086,73.242
1586550357.226,-38.574,37.109,24.902,-9.766,37.109
1586550357.230,-10.254,37.598,24.902,5.859,15.625
1586550357.234,97.168,37.598,26.367,56.641,26.855
1586550357.238,85.449,37.109,25.879,51.270,0.977
1586550357.242,-31.738,35.645,26.367,8.301,-3.418
1586550357.246,-27.832,34.668,24.902,1.953,25.879
1586550357.250,81.055,31.250,22.461,35.156,22.461
1586550357.254,128.906,29.297,22.949,66.406,45.898
1586550357.258,7.324,30.273,20.996,27.832,6.836
1586550357.262,-45.898,31.738,20.996,7.812,-19.531
1586550357.265,40.527,34.668,23.438,38.086,68.848
1586550357.269,123.535,34.180,24.902,67.871,98.633
1586550357.273,29.785,31.738,22.949,31.738,38.574
1586550357.277,-69.824,32.715,23.438,-9.277,-0.977
1586550357.281,-16.602,31.738,22.949,3.418,10.254
1586550357.285,99.609,30.273,22.461,50.781,53.223
1586550357.289,54.688,30.273,23.926,40.039,68.848
1586550357.293,-55.176,32.715,21.973,-8.301,11.719
1586550357.297,-26.367,32.715,20.996,3.418,-20.508
1586550357.301,88.379,31.738,24.414,49.805,6.836
1586550357.305,94.727,30.762,25.879,52.246,25.879
1586550357.308,-28.809,29.785,21.973,8.301,17.090
1586550357.312,-30.762,30.762,25.391,8.789,-19.043
1586550357.316,74.219,33.203,30.762,51.758,-24.902
1586550357.320,127.441,35.645,29.785,70.801,61.523
1586550357.324,25.391,36.133,28.809,27.344,23.926
1586550357.328,-30.762,33.203,28.809,0.977,-46.387
1586550357.332,42.969,32.715,28.320,25.879,-40.039
1586550357.336,142.090,31.250,30.762,63.477,-5.859
1586550357.340,62.500,28.809,33.203,41.016,48.828
1586550357.344,-43.457,28.320,30.273,0.000,38.574
1586550357.348,6.836,28.809,26.367,1.953,44.434
1586550357.351,129.395,29.785,27.344,51.270,14.648
1586550357.355,101.562,30.762,32.715,53.223,21.484
1586550357.359,-47.363,25.879,33.203,1.953,11.230
1586550357.363,-47.852,21.484,29.297,8.301,18.066
1586550357.367,66.406,25.391,26.855,49.805,87.891
1586550357.371,87.891,27.832,27.832,61.035,42.969
1586550357.375,-31.250,27.832,30.273,25.879,-10.254
1586550357.379,-52.734,32.227,28.809,8.301,-0.488
1586550357.383,47.852,33.203,28.809,33.691,-31.738
1586550357.387,105.957,33.203,27.832,50.781,-18.066
1586550357.390,10.742,34.668,29.297,15.137,33.203
1586550357.394,-47.363,31.738,32.227,-1.953,50.293
1586550357.398,21.484,33.203,29.297,22.949,65.918
1586550357.402,124.023,34.668,30.762,61.523,5.371
1586550357.406,64.453,35.645,28.320,32.715,18.066
1586550357.410,-30.273,35.645,26.367,-10.254,88.867
1586550357.414,10.254,33.691,31.250,6.836,34.180
1586550357.418,117.676,35.645,31.738,54.199,3.906
1586550357.422,97.656,32.715,31.738,50.781,15.625
1586550357.426,-29.785,34.180,28.809,-1.465,13.184
1586550357.430,-36.133,37.109,28.809,-3.418,25.391
1586550357.433,71.289,34.180,33.203,49.805,57.617
1586550357.437,106.445,32.227,32.715,70.312,65.430
1586550357.441,-22.461,31.738,28.809,30.762,1.953
1586550357.445,-64.453,30.762,26.855,16.113,-15.625
1586550357.449,34.668,30.762,27.832,41.992,31.250
1586550357.453,119.629,31.250,27.344,58.594,54.688
1586550357.457,25.879,32.715,26.855,11.230,59.082
1586550357.461,-50.293,31.738,26.855,-15.137,53.223
1586550357.465,13.184,31.738,27.832,3.906,69.336
1586550357.469,128.418,34.180,30.762,57.129,80.078
1586550357.473,70.801,31.250,31.738,42.969,18.066
1586550357.476,-35.156,31.738,23.926,-14.648,-7.324
1586550357.480,7.324,31.250,21.973,0.488,84.961
1586550357.484,99.609,25.879,29.785,50.781,96.680
1586550357.488,81.055,23.438,31.738,43.945,37.109
1586550357.492,-40.527,23.438,30.762,-16.602,15.625
1586550357.496,-55.176,24.414,30.273,-31.250,-6.836
1586550357.500,41.992,25.391,31.250,10.254,35.156
1586550357.504,103.027,27.344,30.762,39.551,64.941
1586550357.508,3.418,26.855,25.391,5.371,28.320
1586550357.512,-36.133,27.344,22.949,-10.254,41.504
1586550357.515,41.504,27.832,25.391,16.113,36.133
1586550357.519,121.094,31.250,29.785,57.617,27.344
1586550357.523,35.645,34.180,30.762,39.062,39.062
1586550357.527,-56.152,29.297,26.367,-12.207,-1.953
1586550357.531,-1.953,26.367,27.344,6.836,-10.254
1586550357.535,105.469,29.297,29.297,60.059,34.668
1586550357.539,67.383,30.762,31.738,50.781,20.508
1586550357.543,-39.551,30.273,32.715,7.812,14.160
1586550357.547,-14.648,29.297,30.762,10.254,26.855
1586550357.551,100.098,28.809,29.785,54.199,37.109
1586550357.555,109.863,34.668,26.855,61.035,12.695
1586550357.558,-23.926,30.762,30.762,12.695,-36.133
1586550357.562,-39.062,28.809,35.156,9.277,5.371
1586550357.566,68.848,33.203,31.738,45.410,-30.273
1586550357.570,125.000,29.297,32.227,72.754,-0.488
1586550357.574,12.207,30.273,28.320,24.414,25.391
1586550357.578,-42.480,29.785,25.391,-10.742,-27.832
1586550357.582,37.109,32.227,29.785,24.414,12.207
1586550357.586,127.930,36.621,27.344,59.570,75.195
1586550357.590,47.363,34.180,24.414,34.668,-6.348
1586550357.594,-56.152,33.203,26.367,0.977,-87.402
1586550357.598,-16.113,33.203,31.250,16.602,-30.762
1586550357.601,94.238,32.227,31.250,65.430,-4.883
1586550357.605,70.801,32.715,28.320,67.871,-14.648
1586550357.609,-47.363,32.715,29.297,18.066,-10.254
1586550357.613,-32.715,32.715,28.809,4.883,16.602
1586550357.617,75.195,34.180,28.320,36.133,38.574
1586550357.621,100.586,33.203,28.809,46.875,57.617
1586550357.625,-21.973,29.785,28.320,-0.977,45.898
1586550357.629,-53.223,27.344,28.320,-15.137,-13.184
1586550357.633,39.062,28.809,26.367,23.926,-28.809
1586550357.637,111.816,29.297,26.367,58.105,51.758
1586550357.640,20.508,29.785,27.832,25.391,57.129
1586550357.644,-46.875,32.715,26.367,-3.418,0.977
1586550357.648,15.625,29.785,26.855,19.531,17.578
1586550357.652,127.441,29.297,26.367,61.035,26.367
1586550357.656,71.777,34.668,25.879,42.969,13.672
1586550357.660,-33.203,34.668,24.902,-5.371,49.805
1586550357.664,4.395,35.156,25.879,8.301,70.801
1586550357.668,109.375,39.551,27.832,53.711,64.453
1586550357.672,93.262,43.457,28.320,52.734,71.777
1586550357.676,-32.715,40.527,28.809,21.973,32.715
1586550357.680,-37.598,33.691,26.367,10.742,-23.926
1586550357.683,79.102,34.668,25.391,37.598,38.574
1586550357.687,122.070,36.133,27.344,59.570,87.891
1586550357.691,0.977,35.645,28.809,19.043,55.176
1586550357.695,-41.992,36.621,29.297,6.348,29.785
1586550357.699,40.039,32.715,31.250,41.016,49.316
1586550357.703,119.629,31.250,32.227,74.219,27.344
1586550357.707,28.809,33.203,30.273,36.621,7.324
1586550357.711,-53.223,33.203,27.344,-2.441,41.992
1586550357.715,3.418,34.180,23.438,17.090,11.719
1586550357.719,112.793,33.203,26.367,61.523,20.508
1586550357.723,68.359,32.227,30.762,46.387,17.578
1586550357.726,-40.039,32.227,26.367,-0.488,-29.785
1586550357.730,-24.414,31.250,20.996,9.766,-30.762
1586550357.734,78.125,28.809,20.508,42.969,21.484
1586550357.738,93.750,29.785,28.320,51.758,65.430
1586550357.742,-20.996,31.250,35.645,9.277,51.758
1586550357.746,-34.668,26.855,33.203,-9.277,57.129
1586550357.750,75.195,25.879,32.227,34.668,38.086
1586550357.754,135.254,28.809,31.250,68.359,9.766
1586550357.758,15.137,30.762,28.320,23.926,34.668
1586550357.762,-49.316,27.344,27.832,-11.230,85.938
1586550357.765,41.504,26.855,25.879,9.277,42.480
1586550357.769,140.137,27.832,25.391,44.434,-10.742
1586550357.773,44.434,27.832,26.367,20.996,16.113
1586550357.777,-47.852,29.297,25.879,-3.906,35.645
1586550357.781,2.441,27.832,23.438,13.672,-31.738
1586550357.785,99.609,28.320,25.879,51.270,-5.859
1586550357.789,61.035,30.762,27.344,44.434,25.879
1586550357.793,-40.527,29.785,27.832,3.418,-15.625
1586550357.797,-9.277,29.297,28.809,19.043,-31.738
1586550357.801,96.680,30.273,27.832,73.730,-33.691
1586550357.805,115.723,28.320,29.785,79.590,4.395
1586550357.808,-15.137,32.715,29.297,15.137,0.488
1586550357.812,-30.762,35.645,28.809,-9.277,0.488
1586550357.816,80.566,32.715,28.809,27.832,15.625
1586550357.820,132.812,33.691,29.297,57.617,30.273
1586550357.824,20.020,32.227,32.227,25.879,36.133
1586550357.828,-38.574,28.809,30.273,-1.953,0.977
1586550357.832,35.156,31.738,30.273,19.043,-23.926
1586550357.836,126.953,34.668,31.250,62.988,-15.137
1586550357.840,58.594,38.086,32.715,41.504,1.953
1586550357.844,-37.109,39.551,35.156,4.395,0.488
1586550357.848,8.301,38.086,35.645,20.996,39.551
1586550357.851,134.277,41.016,33.691,66.895,90.820
1586550357.855,109.863,39.062,32.227,66.895,96.680
1586550357.859,-20.996,35.645,31.738,14.160,67.383
1586550357.863,-24.902,34.668,30.273,4.883,15.625
1586550357.867,74.219,32.715,31.250,48.340,65.430
1586550357.871,106.445,31.250,32.715,66.895,66.406
1586550357.875,-16.602,31.250,32.715,17.090,18.066
1586550357.879,-43.945,32.227,34.180,-12.695,49.316
1586550357.883,51.758,30.762,33.691,23.438,39.551
1586550357.887,123.047,32.227,29.785,62.988,-27.832
1586550357.890,25.391,34.180,30.762,26.367,52.734
1586550357.894,-44.922,32.715,33.691,-5.371,67.383
1586550357.898,14.648,29.785,36.621,16.602,-14.648
1586550357.902,115.234,28.320,38.574,56.641,30.762
1586550357.906,65.430,28.809,37.109,41.504,57.617
1586550357.910,-49.805,27.344,36.621,-1.465,46.387
1586550357.914,-20.508,26.855,35.645,6.836,57.129
1586550357.918,104.492,28.320,34.180,55.176,96.680
1586550357.922,85.449,28.320,34.180,50.293,124.512
1586550357.926,-37.598,29.785,31.250,-3.906,93.262
1586550357.930,-28.809,31.738,29.297,-11.230,53.223
1586550357.933,77.637,31.250,31.738,30.762,3.906
1586550357.937,115.723,31.738,33.691,59.082,8.301
1586550357.941,-7.812,30.273,33.203,17.578,60.547
1586550357.945,-51.758,27.832,34.180,-2.930,39.551
1586550357.949,30.273,28.809,34.668,29.785,30.273
1586550357.953,121.094,32.227,32.227,63.477,54.199
1586550357.957,33.691,35.156,27.344,32.227,65.430
1586550357.961,-49.805,32.715,27.344,-1.953,46.875
1586550357.965,7.324,32.227,29.785,22.461,63.477
1586550357.969,104.492,32.227,30.762,66.406,39.062
1586550357.973,63.477,28.809,29.297,50.781,-9.766
1586550357.976,-32.715,30.762,27.832,3.418,10.742
1586550357.980,-2.930,27.832,30.762,5.859,-21.484
1586550357.984,104.492,25.391,33.691,54.688,-70.801
1586550357.988,112.793,28.809,31.250,66.406,-6.836
1586550357.992,-6.348,32.227,29.785,4.883,54.199
1586550357.996,-24.414,34.180,29.785,-14.648,35.156
1586550358.000,75.684,32.715,25.391,33.203,-1.465
1586550358.004,126.953,32.715,22.949,58.105,3.906
1586550358.008,0.977,32.227,23.926,21.484,14.160
1586550358.012,-59.570,30.273,23.926,0.000,-10.742
1586550358.015,14.648,26.367,28.809,24.902,30.762
1586550358.019,96.191,26.855,31.250,59.082,82.031
1586550358.023,20.020,31.738,27.344,27.832,24.414
1586550358.027,-67.871,31.738,28.809,-13.184,20.020
1586550358.031,-10.742,33.203,29.785,4.883,121.094
1586550358.035,109.375,34.668,31.250,51.758,77.637
1586550358.039,77.637,34.180,31.738,34.668,30.273
1586550358.043,-32.715,34.180,29.785,-14.160,29.785
1586550358.047,-2.441,36.133,29.297,-2.930,0.000
1586550358.051,111.328,37.109,27.832,51.270,24.902
1586550358.055,122.559,35.156,28.809,64.453,12.695
1586550358.058,-20.020,34.668,29.785,9.277,-20.508
1586550358.062,-50.781,32.715,30.273,-8.301,49.316
1586550358.066,48.828,33.203,32.227,27.832,32.715
