timestamps,TP9,AF7,AF8,TP10,Right AUX
1586550972.289,68.359,28.320,29.297,59.082,74.219
1586550972.293,-10.742,31.738,31.738,20.996,23.926
1586550972.297,-1.465,30.762,29.297,17.090,-22.949
1586550972.301,62.988,31.738,26.855,43.945,49.316
1586550972.304,77.637,28.809,28.320,58.105,165.527
1586550972.308,0.000,25.879,28.809,25.879,46.875
1586550972.312,-16.602,26.855,30.273,6.348,-84.473
1586550972.316,41.504,28.320,29.297,27.344,-38.086
1586550972.320,85.449,28.320,28.320,53.711,82.520
1586550972.324,30.273,28.320,27.832,30.762,96.680
1586550972.328,-12.695,30.273,25.391,2.930,-8.301
1586550972.332,29.785,27.832,28.320,16.602,-26.367
1586550972.336,84.961,27.832,31.250,54.688,61.523
1586550972.340,58.594,30.273,29.785,50.293,101.562
1586550972.344,-14.648,27.344,32.227,14.648,-5.371
1586550972.347,10.742,25.879,31.738,16.113,-65.918
1586550972.351,77.148,29.785,29.785,44.434,14.160
1586550972.355,69.824,30.762,31.738,54.199,92.285
1586550972.359,-4.883,30.273,30.762,22.949,36.133
1586550972.363,-4.883,29.297,26.367,10.254,-39.062
1586550972.367,54.688,29.297,25.391,32.227,-25.391
1586550972.371,83.496,30.762,27.832,54.688,87.402
1586550972.375,11.719,28.809,26.367,26.855,41.016
1586550972.379,-13.184,28.320,27.344,10.742,-46.875
1586550972.383,41.016,28.809,27.832,30.762,-2.930
1586550972.387,92.773,27.344,23.438,50.781,84.961
1586550972.390,34.668,26.367,23.926,29.297,37.598
1586550972.394,-28.809,25.879,24.902,-3.418,-84.961
1586550972.398,9.766,25.391,26.367,11.230,-54.199
1586550972.402,77.148,23.438,30.273,42.969,22.461
1586550972.406,62.500,22.461,27.344,43.945,63.965
1586550972.410,-15.137,24.414,24.902,8.789,3.906
1586550972.414,4.395,25.879,24.902,3.418,-36.133
1586550972.418,78.125,25.879,23.926,31.250,40.039
1586550972.422,77.637,25.391,26.367,37.598,117.676
1586550972.426,-6.348,28.320,25.879,11.719,16.602
1586550972.429,-14.648,30.762,23.926,-2.441,-62.500
1586550972.433,44.434,29.785,22.949,12.207,-26.367
1586550972.437,85.938,31.250,24.902,40.527,93.262
1586550972.441,20.020,33.691,26.367,19.043,94.238
1586550972.445,-13.184,33.691,27.344,-3.906,-14.648
1586550972.449,35.156,31.250,27.832,12.207,-18.555
1586550972.453,92.773,30.762,26.855,45.898,86.426
1586550972.457,55.176,30.762,28.809,41.016,70.801
1586550972.461,-10.742,31.250,28.809,10.742,-6.836
1586550972.465,9.277,29.297,24.902,19.043,-64.941
1586550972.469,68.359,26.367,21.973,45.898,11.719
1586550972.472,66.895,30.273,26.367,45.898,117.188
1586550972.476,-7.812,30.273,30.762,16.113,6.836
1586550972.480,-2.930,27.344,30.273,10.742,-73.730
1586550972.484,60.547,27.832,29.785,42.480,-1.465
1586550972.488,80.078,29.785,28.320,62.988,108.887
1586550972.492,5.859,26.367,29.785,28.320,81.543
1586550972.496,-12.695,23.926,29.785,5.371,11.719
1586550972.500,43.945,24.902,28.809,21.484,-6.348
1586550972.504,89.355,21.973,28.809,47.852,107.422
1586550972.508,20.996,25.879,28.320,29.297,113.770
1586550972.512,-27.832,26.367,30.762,8.789,-28.809
1586550972.515,23.438,27.832,32.715,29.297,-32.227
1586550972.519,82.520,30.762,30.762,51.270,85.449
1586550972.523,52.734,29.297,28.320,41.992,58.105
1586550972.527,-9.766,29.785,28.809,12.695,-63.965
1586550972.531,15.137,27.832,28.320,16.113,-47.852
1586550972.535,76.660,29.785,28.320,49.316,55.176
1586550972.539,75.684,31.250,31.738,59.570,107.422
1586550972.543,-6.348,26.855,29.785,25.391,-0.977
1586550972.547,2.441,26.367,27.832,11.719,-47.363
1586550972.551,69.336,29.297,27.344,33.203,26.367
1586550972.554,87.891,29.297,27.832,56.152,129.883
1586550972.558,14.648,29.297,28.320,32.227,52.734
1586550972.562,-9.277,31.250,27.832,13.184,-18.066
1586550972.566,43.457,30.762,29.785,35.156,29.297
1586550972.570,95.215,32.227,29.785,60.547,115.723
1586550972.574,41.016,34.668,26.855,36.621,106.445
1586550972.578,-17.090,31.250,26.367,3.418,-14.160
1586550972.582,28.809,29.785,27.832,20.996,-55.664
1586550972.586,87.891,33.691,28.809,50.781,44.922
1586550972.590,57.617,31.250,29.785,40.039,89.844
1586550972.594,-9.766,29.297,28.320,9.277,-41.992
1586550972.597,5.859,29.785,24.902,10.254,-70.312
1586550972.601,69.336,28.320,22.949,37.598,23.438
1586550972.605,83.008,28.809,24.414,54.199,76.172
1586550972.609,-4.883,28.809,26.855,20.020,8.301
1586550972.613,-9.766,29.297,26.855,3.906,-105.469
1586550972.617,50.781,31.250,26.855,23.926,-61.523
1586550972.621,77.637,29.785,26.367,45.410,105.957
1586550972.625,12.695,27.832,28.809,25.391,59.570
1586550972.629,-14.160,30.273,27.832,1.465,-64.941
1586550972.633,37.109,31.250,25.391,11.719,-39.551
1586550972.637,86.426,30.762,27.344,42.969,65.430
1586550972.640,41.992,31.250,32.227,35.645,63.477
1586550972.644,-22.949,30.273,32.227,0.977,-16.113
1586550972.648,8.789,30.762,29.785,8.301,16.113
1586550972.652,75.195,29.785,31.738,40.527,72.754
1586550972.656,60.547,25.879,33.203,37.109,63.477
1586550972.660,-13.672,26.855,31.738,10.742,-17.578
1586550972.664,-1.465,32.715,33.203,12.695,-50.781
1586550972.668,61.523,34.668,30.762,35.156,33.203
1586550972.672,71.289,35.645,28.320,43.457,107.910
1586550972.676,-5.371,35.645,32.227,11.719,20.020
1586550972.679,-12.695,31.250,30.762,4.883,-42.969
1586550972.683,53.711,32.227,29.785,32.227,19.043
1586550972.687,98.633,34.180,31.738,57.129,106.934
1586550972.691,32.715,33.203,33.203,38.574,52.246
1586550972.695,-1.953,33.691,29.785,10.254,-17.578
1586550972.699,43.945,31.250,27.832,16.113,-29.297
1586550972.703,84.473,30.762,26.367,49.805,53.223
1586550972.707,36.621,31.738,24.902,41.016,88.379
1586550972.711,-33.203,29.785,29.297,5.371,-2.441
1586550972.715,-4.395,30.273,31.250,9.277,-55.664
1586550972.719,63.477,29.785,29.785,34.668,23.926
1586550972.722,61.035,29.785,30.273,40.039,98.145
1586550972.726,-12.695,30.762,29.297,7.324,16.113
1586550972.730,-2.930,29.297,29.297,6.348,-13.672
1586550972.734,57.617,26.855,33.203,39.062,58.594
1586550972.738,82.031,28.320,37.109,56.152,107.422
1586550972.742,10.742,27.832,35.645,25.391,-12.207
1586550972.746,-11.230,26.367,32.227,12.695,-42.480
1586550972.750,43.945,27.832,29.297,37.109,-11.230
1586550972.754,90.820,27.344,31.738,66.895,48.828
1586550972.758,35.156,27.832,30.762,36.621,43.945
1586550972.762,-17.090,28.320,27.832,-0.977,-53.711
1586550972.765,22.949,26.367,31.738,12.695,-50.781
1586550972.769,91.309,26.855,31.250,40.527,66.406
1586550972.773,63.477,26.367,31.250,35.645,93.262
1586550972.777,-15.625,23.926,31.250,6.836,-20.508
1586550972.781,8.301,25.391,28.809,15.137,-41.992
1586550972.785,74.219,27.832,26.855,49.316,42.969
1586550972.789,68.848,30.273,26.367,52.246,97.168
1586550972.793,-4.883,31.250,26.855,14.648,8.301
1586550972.797,0.488,30.273,28.809,11.230,-9.766
1586550972.801,54.199,30.762,31.250,41.016,77.637
1586550972.804,81.543,34.668,32.227,59.570,100.586
1586550972.808,12.695,37.598,29.785,30.762,53.223
1586550972.812,-17.578,33.691,28.809,6.836,4.395
1586550972.816,37.598,32.227,28.320,24.902,-1.465
1586550972.820,90.332,34.180,29.297,56.641,73.242
1586550972.824,36.133,34.668,29.785,39.551,41.504
1586550972.828,-12.207,35.156,28.809,7.324,-55.176
1586550972.832,20.020,34.180,28.320,11.719,-48.828
1586550972.836,75.195,31.738,26.367,43.945,46.875
1586550972.840,57.129,30.762,28.809,43.457,88.379
1586550972.844,-17.090,29.785,31.250,6.836,-5.371
1586550972.847,2.930,26.367,32.227,13.672,-66.895
1586550972.851,70.312,25.879,34.180,50.781,-3.906
1586550972.855,85.449,27.344,29.785,60.059,85.938
1586550972.859,5.371,26.855,28.809,19.531,38.086
1586550972.863,-6.348,31.738,32.227,10.254,-13.184
1586550972.867,53.223,32.715,32.715,39.551,13.672
1586550972.871,87.402,30.762,31.250,51.270,124.023
1586550972.875,22.949,29.297,30.762,19.531,76.660
1586550972.879,-8.789,29.297,31.250,-0.977,-21.484
1586550972.883,37.109,30.762,29.785,17.090,-10.254
1586550972.887,91.309,30.273,30.273,48.340,98.633
1586550972.890,52.246,31.250,32.227,40.527,112.793
1586550972.894,-3.418,34.180,30.273,11.230,-20.508
1586550972.898,26.855,32.715,28.809,17.578,-20.996
1586550972.902,78.613,32.227,29.297,46.387,93.262
1586550972.906,58.105,32.715,29.297,44.434,112.305
1586550972.910,-18.555,31.738,29.785,11.719,8.301
1586550972.914,-7.812,32.227,29.297,8.789,-2.930
1586550972.918,56.641,31.738,27.344,39.062,71.777
1586550972.922,72.266,30.762,29.297,54.199,94.727
1586550972.926,-1.953,31.738,32.715,19.531,54.688
1586550972.929,-13.184,27.832,33.691,2.930,-12.695
1586550972.933,45.410,26.855,33.691,30.762,-27.344
1586550972.937,86.426,32.227,31.738,60.059,61.523
1586550972.941,17.578,32.715,32.715,37.109,69.336
1586550972.945,-28.320,27.832,33.691,11.719,-13.184
1586550972.949,19.531,26.367,32.227,21.973,-17.090
1586550972.953,75.684,28.809,33.691,51.270,89.355
1586550972.957,40.039,27.832,34.180,38.574,84.473
1586550972.961,-23.438,30.762,30.762,10.254,-20.508
1586550972.965,9.766,30.762,29.785,24.414,-57.129
1586550972.969,76.172,27.832,33.203,54.688,17.578
1586550972.972,71.289,29.785,33.691,53.223,85.938
1586550972.976,-8.789,29.297,31.250,13.672,28.320
1586550972.980,-6.836,28.320,30.273,7.324,-31.738
1586550972.984,59.082,29.785,29.297,35.156,0.977
1586550972.988,87.891,29.785,31.250,50.293,91.797
1586550972.992,10.742,29.785,33.203,20.508,62.500
1586550972.996,-18.066,32.227,31.738,4.883,14.648
1586550973.000,38.086,31.250,32.227,28.320,23.438
1586550973.004,90.820,31.250,29.297,54.199,93.262
1586550973.008,35.156,32.227,27.832,35.156,52.246
1586550973.012,-22.949,30.762,30.273,5.859,-19.531
1586550973.015,17.578,31.250,30.762,16.113,-34.180
1586550973.019,82.520,30.762,31.738,45.410,20.996
1586550973.023,57.617,32.227,32.715,33.691,63.477
1586550973.027,-15.137,31.250,35.645,3.418,-20.020
1586550973.031,0.488,26.367,34.180,4.883,-23.438
1586550973.035,62.012,25.391,30.762,29.785,48.828
1586550973.039,68.848,23.926,30.762,38.086,84.473
1586550973.043,-7.324,20.996,29.297,5.859,2.441
1586550973.047,-16.113,27.832,29.785,-2.930,-30.762
1586550973.051,47.363,33.691,31.250,24.902,49.316
1586550973.054,87.891,33.691,32.227,54.688,98.633
1586550973.058,15.137,33.691,33.691,34.180,50.781
1586550973.062,-11.719,34.668,32.227,13.672,12.695
1586550973.066,43.945,34.180,29.785,30.762,42.480
1586550973.070,95.703,33.203,30.273,58.105,106.445
1586550973.074,41.992,29.785,34.180,41.992,90.332
1586550973.078,-17.578,29.785,34.180,17.090,5.371
1586550973.082,19.043,29.785,29.785,29.297,-31.738
1586550973.086,74.219,28.320,29.785,57.617,29.785
1586550973.090,54.688,30.273,32.715,51.758,57.617
1586550973.094,-14.160,31.250,33.691,12.207,-16.602
1586550973.097,2.441,30.273,33.691,5.859,-76.660
1586550973.101,65.918,29.785,33.691,31.738,-11.719
1586550973.105,79.590,32.227,33.203,47.363,47.852
1586550973.109,-2.930,30.762,34.180,20.020,-17.090
1586550973.113,-14.160,26.367,34.180,8.301,-35.645
1586550973.117,50.781,25.391,33.691,34.668,5.859
1586550973.121,94.238,30.273,32.715,57.617,96.191
1586550973.125,24.414,29.785,33.691,32.227,66.895
1586550973.129,-17.090,26.855,31.738,8.301,-8.301
1586550973.133,36.133,28.320,29.785,26.367,20.020
1586550973.137,91.797,27.832,30.273,53.223,87.402
1586550973.140,43.457,28.320,28.809,41.992,62.012
1586550973.144,-22.949,29.785,25.879,10.742,-29.785
1586550973.148,7.812,28.809,23.438,8.789,-27.344
1586550973.152,64.453,28.809,23.926,33.203,47.852
1586550973.156,45.898,28.320,25.391,32.227,77.148
1586550973.160,-31.738,27.344,24.414,1.953,33.691
1586550973.164,-17.090,28.320,20.508,-0.488,-20.996
1586550973.168,52.246,30.762,22.461,23.438,0.977
1586550973.172,73.730,30.273,27.832,40.527,94.727
1586550973.176,-3.906,25.879,28.809,10.254,27.344
1586550973.179,-22.461,25.879,27.832,3.418,-30.273
1586550973.183,41.016,29.297,25.879,36.133,8.301
1586550973.187,89.844,31.250,26.855,53.711,63.965
1586550973.191,32.715,29.297,29.785,22.461,40.039
1586550973.195,-11.719,25.879,29.785,-5.859,7.812
1586550973.199,25.391,29.297,27.832,10.254,15.625
1586550973.203,75.684,33.203,27.832,47.852,67.383
1586550973.207,32.715,31.738,28.320,39.062,66.406
1586550973.211,-34.668,34.180,27.344,3.418,-17.090
1586550973.215,-2.930,34.668,27.344,9.766,-79.102
1586550973.219,66.406,30.273,28.320,40.527,-20.508
1586550973.222,69.824,31.250,28.809,36.133,71.777
1586550973.226,-5.371,33.203,30.762,-0.977,2.441
1586550973.230,0.488,34.180,30.273,5.371,-35.156
1586550973.234,57.129,34.180,27.832,38.086,-10.742
1586550973.238,83.984,31.738,29.785,60.059,88.379
1586550973.242,21.484,32.227,31.250,31.738,83.496
1586550973.246,1.465,30.273,29.785,8.301,-21.484
1586550973.250,53.223,29.297,31.250,26.367,-10.254
1586550973.254,101.074,31.738,33.691,53.711,56.641
1586550973.258,40.527,30.762,35.156,41.016,17.090
1586550973.262,-24.902,28.320,32.227,15.137,-19.043
1586550973.265,22.949,30.273,28.320,19.043,22.949
1586550973.269,83.984,30.273,28.809,46.875,76.660
1586550973.273,58.105,30.273,33.203,50.781,97.168
1586550973.277,-17.090,30.273,32.715,20.508,45.410
1586550973.281,-0.488,29.297,31.738,17.090,-37.109
1586550973.285,66.895,29.297,30.762,41.016,40.527
1586550973.289,74.219,28.809,32.227,52.734,100.586
1586550973.293,-0.488,27.344,35.156,29.785,31.738
1586550973.297,-2.930,27.832,36.621,19.531,5.859
1586550973.301,57.129,29.297,35.645,39.062,-9.277
1586550973.304,100.098,28.320,31.250,58.594,56.152
1586550973.308,19.531,26.367,32.715,22.949,66.406
1586550973.312,-24.414,27.344,33.691,2.441,41.016
1586550973.316,37.598,29.785,33.203,28.809,21.484
1586550973.320,94.238,28.809,31.738,50.293,72.754
1586550973.324,40.527,30.762,27.832,29.785,67.871
1586550973.328,-20.508,30.273,28.320,3.906,-12.207
1586550973.332,17.090,29.297,26.855,12.207,0.977
1586550973.336,75.684,30.273,26.855,39.551,59.082
1586550973.340,59.570,31.250,27.832,41.992,89.355
1586550973.344,-21.973,31.738,25.879,7.812,7.812
1586550973.347,-9.766,29.785,25.879,5.371,-10.742
1586550973.351,62.012,31.250,24.414,32.227,21.973
1586550973.355,81.543,33.691,24.902,46.387,89.844
1586550973.359,7.812,30.762,29.297,21.973,26.855
1586550973.363,-9.277,31.250,28.809,8.301,-62.012
1586550973.367,41.016,31.250,26.855,34.180,-26.367
1586550973.371,86.914,29.297,26.367,59.082,77.148
1586550973.375,22.461,29.785,26.855,35.156,38.574
1586550973.379,-27.832,30.273,26.367,8.301,-43.457
1586550973.383,19.531,28.320,28.809,20.996,0.000
1586550973.387,76.660,26.367,32.715,54.199,46.875
1586550973.390,49.316,28.320,33.691,46.387,34.668
1586550973.394,-14.648,26.367,34.180,16.602,-44.434
1586550973.398,5.371,24.414,32.715,27.344,-34.180
1586550973.402,65.918,25.391,30.762,53.711,49.316
1586550973.406,58.594,26.367,32.227,51.758,88.867
1586550973.410,-15.625,27.832,30.762,12.207,19.531
1586550973.414,-7.812,27.344,28.320,6.348,-59.570
1586550973.418,55.664,28.320,25.879,32.715,-18.066
1586550973.422,72.754,26.855,25.879,47.363,84.473
1586550973.426,-2.441,27.832,28.320,22.949,42.480
1586550973.429,-20.020,31.250,28.320,6.348,2.930
1586550973.433,33.203,28.809,28.809,28.809,10.254
1586550973.437,77.148,25.879,28.320,45.898,57.617
1586550973.441,29.297,26.367,27.832,20.508,87.891
1586550973.445,-19.043,28.809,25.391,-2.441,15.137
1586550973.449,19.043,27.344,23.438,10.742,16.113
1586550973.453,86.426,26.367,25.879,41.504,104.980
1586550973.457,53.223,27.832,31.250,35.645,100.098
1586550973.461,-20.508,26.855,32.227,6.348,8.789
1586550973.465,1.465,29.297,29.785,11.719,-10.742
1586550973.469,67.871,28.320,31.250,44.922,31.738
1586550973.472,69.336,28.809,30.762,56.641,55.176
1586550973.476,-15.137,30.273,32.227,17.090,-15.625
1586550973.480,-9.277,30.273,32.227,0.488,-8.301
1586550973.484,57.129,33.203,27.344,21.484,57.617
1586550973.488,83.496,30.762,26.367,41.016,87.402
1586550973.492,9.277,28.320,27.832,19.043,13.184
1586550973.496,-20.508,29.297,27.832,-6.348,-57.617
1586550973.500,34.668,30.273,28.320,16.113,-27.832
1586550973.504,90.332,31.250,30.273,55.176,72.266
1586550973.508,36.133,29.785,31.250,32.227,87.891
1586550973.512,-15.625,28.320,29.297,-0.977,22.461
1586550973.515,31.738,31.250,29.785,19.531,-20.996
1586550973.519,85.449,29.785,33.691,52.246,33.203
1586550973.523,52.246,24.902,35.156,41.992,79.102
1586550973.527,-21.484,29.785,35.156,6.348,19.531
1586550973.531,0.488,30.273,35.645,13.184,-25.391
1586550973.535,64.453,25.879,31.738,44.922,-3.418
1586550973.539,72.266,28.809,32.227,52.246,82.031
1586550973.543,-2.441,27.344,34.180,19.043,27.344
1586550973.547,-10.254,26.367,30.273,8.301,-1.465
1586550973.551,45.410,29.785,28.809,28.320,31.250
1586550973.554,87.891,27.832,31.250,54.199,79.590
1586550973.558,30.273,29.297,28.320,29.785,67.871
1586550973.562,-13.184,32.715,25.879,3.418,31.738
1586550973.566,32.715,27.832,27.832,24.414,4.883
1586550973.570,95.703,29.785,28.320,55.176,59.082
1586550973.574,52.734,35.645,26.855,39.062,106.934
1586550973.578,-9.277,32.715,27.344,7.812,44.922
1586550973.582,21.484,29.297,26.367,14.648,16.113
1586550973.586,77.637,29.297,24.902,36.133,48.828
1586550973.590,67.383,30.273,27.832,48.340,77.148
1586550973.594,-4.395,29.785,32.715,32.715,-2.441
1586550973.597,6.348,30.762,35.156,34.668,-84.961
1586550973.601,70.801,29.785,32.715,49.316,-65.430
1586550973.605,86.426,28.320,30.762,52.734,47.363
1586550973.609,3.418,27.344,31.738,26.367,48.340
1586550973.613,-18.555,27.344,32.227,7.812,-17.090
1586550973.617,39.062,28.320,33.203,28.809,-0.977
1586550973.621,89.844,29.785,33.203,55.664,93.750
1586550973.625,31.250,31.250,29.785,29.785,62.012
1586550973.629,-20.020,29.785,28.809,7.812,-13.184
1586550973.633,26.855,29.297,29.785,21.484,0.000
1586550973.637,94.727,29.785,30.273,53.223,63.965
1586550973.640,57.617,31.250,30.273,49.316,63.477
1586550973.644,-14.648,35.645,30.762,12.695,-11.719
1586550973.648,13.672,34.668,31.250,15.625,8.301
1586550973.652,76.172,32.227,33.203,51.758,83.008
1586550973.656,71.777,33.203,33.691,55.176,78.613
1586550973.660,-3.906,35.156,29.785,17.578,27.344
1586550973.664,-1.465,35.645,30.273,11.230,23.926
1586550973.668,59.570,33.203,31.250,39.551,14.648
1586550973.672,87.402,33.691,29.785,55.176,64.453
1586550973.676,10.254,33.691,28.809,22.461,51.270
1586550973.679,-15.137,32.715,27.832,8.789,6.348
1586550973.683,42.969,29.297,28.320,31.250,-1.465
1586550973.687,91.309,29.297,27.344,56.641,35.156
1586550973.691,35.156,30.273,26.367,41.504,97.656
1586550973.695,-19.043,30.762,30.762,7.812,43.457
1586550973.699,24.414,32.227,30.762,12.207,-78.613
1586550973.703,81.055,29.297,29.297,48.828,-28.320
1586550973.707,47.363,29.297,30.762,51.758,90.820
1586550973.711,-22.461,26.855,32.227,13.672,28.320
1586550973.715,2.441,24.902,31.250,10.254,11.719
1586550973.719,69.824,28.809,30.762,40.039,51.758
1586550973.722,74.707,28.809,29.785,42.969,91.309
1586550973.726,-2.441,32.227,27.832,6.348,86.914
1586550973.730,-2.441,36.621,26.367,-3.418,11.719
1586550973.734,53.711,32.227,26.855,24.414,41.992
1586550973.738,82.031,29.785,27.344,48.828,76.172
1586550973.742,10.742,33.691,29.297,24.414,-9.277
1586550973.746,-23.926,34.180,27.832,2.930,-32.715
1586550973.750,33.203,33.203,24.902,21.484,-0.488
1586550973.754,90.820,31.738,28.320,52.734,68.848
1586550973.758,41.016,27.832,31.738,41.992,43.945
1586550973.762,-17.578,28.320,32.227,13.672,-2.930
1586550973.765,22.949,28.809,30.273,24.414,0.000
1586550973.769,85.938,27.832,28.320,50.293,-0.977
1586550973.773,68.359,31.738,30.273,48.340,83.984
1586550973.777,-5.371,31.738,35.645,24.414,-2.930
1586550973.781,6.836,28.809,34.180,18.555,-93.750
1586550973.785,69.336,30.273,29.785,38.574,47.852
1586550973.789,83.496,31.250,31.738,53.223,99.121
1586550973.793,4.883,29.297,30.762,27.344,12.695
1586550973.797,-6.836,28.809,30.273,11.230,-26.855
1586550973.801,56.641,29.297,28.809,29.297,-29.785
1586550973.804,93.262,29.297,29.785,54.199,56.641
1586550973.808,23.438,31.250,32.227,32.715,26.367
1586550973.812,-16.113,28.809,27.832,11.230,-39.062
1586550973.816,32.715,29.785,25.391,25.879,1.953
1586550973.820,92.773,31.250,24.902,55.176,55.664
1586550973.824,53.711,31.250,26.367,45.898,52.246
1586550973.828,-16.602,33.203,28.320,14.160,-5.371
1586550973.832,18.555,32.227,25.879,22.461,-16.113
1586550973.836,80.078,31.738,27.344,45.898,48.340
1586550973.840,64.453,32.227,29.297,46.875,84.473
1586550973.844,-16.602,28.809,29.785,12.695,23.926
1586550973.847,-1.953,29.785,31.250,10.254,9.766
1586550973.851,64.941,30.762,31.250,40.527,17.090
1586550973.855,81.055,29.297,31.738,55.176,103.027
1586550973.859,1.465,25.879,32.227,17.578,74.707
1586550973.863,-18.066,27.832,28.809,-6.836,-43.457
1586550973.867,44.922,34.180,30.273,21.973,-10.254
1586550973.871,92.773,32.715,31.738,50.781,50.781
1586550973.875,28.809,29.785,29.785,27.344,2.441
1586550973.879,-16.602,28.809,32.227,6.836,-9.766
1586550973.883,28.809,24.902,33.691,23.438,36.621
1586550973.887,90.332,26.855,31.738,51.270,28.320
1586550973.890,58.105,30.273,30.273,42.480,41.504
1586550973.894,-14.648,32.227,28.320,12.695,17.578
1586550973.898,17.578,32.227,30.762,20.020,-0.488
1586550973.902,84.961,30.273,32.715,48.828,19.531
1586550973.906,79.590,30.273,32.227,59.082,51.270
1586550973.910,-2.441,31.250,33.691,30.762,23.926
1586550973.914,-7.324,32.715,33.691,23.438,-12.207
1586550973.918,55.176,32.227,30.762,45.898,17.090
1586550973.922,82.520,32.227,28.809,48.828,106.445
1586550973.926,8.789,33.203,30.273,13.672,66.895
1586550973.929,-15.625,33.691,31.738,4.395,-9.277
1586550973.933,41.504,33.691,32.227,30.273,34.180
1586550973.937,92.773,33.203,28.320,52.246,88.867
1586550973.941,30.273,30.273,28.320,35.156,51.270
1586550973.945,-28.809,27.344,30.273,9.277,-4.395
1586550973.949,19.043,27.832,31.738,19.043,8.789
1586550973.953,77.637,29.297,29.785,44.922,58.594
1586550973.957,54.199,32.227,28.809,41.016,41.016
1586550973.961,-15.625,32.227,31.250,13.672,-12.207
1586550973.965,-1.465,30.762,28.320,12.207,-25.391
1586550973.969,65.918,32.227,28.320,41.992,28.809
1586550973.972,81.055,32.715,31.738,56.641,65.430
1586550973.976,-5.371,31.250,30.273,21.973,3.418
1586550973.980,-19.043,25.391,26.855,12.207,2.930
1586550973.984,47.363,22.949,27.832,37.109,61.523
1586550973.988,84.473,31.250,32.227,58.594,67.871
1586550973.992,14.648,33.691,36.621,34.180,36.133
1586550973.996,-18.066,31.250,36.621,11.230,3.906
1586550974.000,36.133,31.738,33.691,24.902,-11.719
1586550974.004,85.449,30.273,32.227,48.340,47.852
1586550974.008,41.992,31.250,34.668,40.039,56.152
1586550974.012,-13.184,30.762,33.203,15.137,-13.672
1586550974.015,19.531,31.250,28.809,20.996,7.324
1586550974.019,86.426,31.250,28.320,42.480,66.895
1586550974.023,73.242,28.809,26.855,35.156,81.055
1586550974.027,-18.555,29.297,25.879,4.883,7.812
1586550974.031,-12.695,29.297,27.832,9.766,-4.395
1586550974.035,58.105,30.273,29.297,38.574,11.719
1586550974.039,77.637,33.691,29.785,52.734,55.176
1586550974.043,2.441,33.691,28.809,20.508,16.602
1586550974.047,-11.230,31.250,27.832,4.395,-63.477
1586550974.051,50.781,32.715,27.832,24.902,0.000
1586550974.054,91.797,28.320,29.297,47.852,69.336
1586550974.058,26.855,28.320,32.715,33.203,24.414
1586550974.062,-19.531,32.227,30.762,9.766,-13.184
1586550974.066,20.996,28.809,30.762,20.508,-11.719
1586550974.070,80.566,29.297,32.227,54.688,32.715
1586550974.074,45.898,31.738,26.855,46.875,89.355
1586550974.078,-23.926,28.809,28.809,10.254,4.395
1586550974.082,5.859,29.297,28.809,13.672,-36.621
1586550974.086,79.102,33.203,26.367,44.434,62.012
1586550974.090,74.219,31.738,29.785,51.270,55.664
1586550974.094,-12.695,32.227,33.691,15.625,-23.438
1586550974.097,-9.277,34.668,33.203,5.371,56.152
1586550974.101,53.223,33.691,32.227,31.250,88.379
1586550974.105,78.125,35.156,28.320,53.711,62.012
1586550974.109,1.465,34.180,28.320,22.461,54.199
1586550974.113,-22.461,32.715,28.320,-4.883,-9.766
1586550974.117,41.504,31.250,27.832,15.625,-45.898
1586550974.121,97.656,30.273,27.344,43.945,39.551
1586550974.125,37.109,30.762,27.344,30.762,64.453
1586550974.129,-20.020,32.227,29.785,2.930,24.414
1586550974.133,22.461,31.738,30.273,20.020,-16.602
1586550974.137,82.520,30.762,31.738,60.059,25.391
1586550974.140,55.176,31.250,32.715,51.270,60.547
1586550974.144,-13.184,34.180,30.273,13.184,-30.273
1586550974.148,8.789,32.227,28.809,6.348,-38.574
1586550974.152,73.242,28.809,28.809,36.133,26.367
1586550974.156,78.613,30.762,29.297,52.734,75.684
1586550974.160,-0.977,29.297,32.227,22.461,13.184
1586550974.164,-2.930,28.320,27.832,5.371,8.301
1586550974.168,57.617,32.227,28.320,34.180,83.496
1586550974.172,84.961,33.203,30.762,58.105,84.961
1586550974.176,14.160,35.156,30.762,29.297,33.203
1586550974.179,-12.695,34.668,33.203,12.695,-48.828
1586550974.183,41.992,31.250,33.691,32.715,-16.602
1586550974.187,92.285,29.785,30.273,58.594,102.539
1586550974.191,43.457,28.809,31.250,42.480,52.246
1586550974.195,-14.160,28.320,34.180,16.113,7.812
1586550974.199,14.648,28.320,32.227,22.461,14.160
1586550974.203,73.730,30.762,30.762,48.340,51.270
1586550974.207,58.594,31.738,31.738,55.176,73.730
1586550974.211,-19.043,29.785,31.738,24.902,-6.348
1586550974.215,-2.930,30.273,29.785,18.555,-25.391
1586550974.219,72.754,31.250,30.762,42.969,40.527
1586550974.222,86.426,32.227,32.715,52.734,85.449
1586550974.226,4.395,32.227,34.180,19.531,62.012
1586550974.230,-8.301,31.250,33.203,1.953,28.809
1586550974.234,48.828,30.762,32.715,20.996,40.527
1586550974.238,88.867,29.785,33.203,40.527,78.613
1586550974.242,26.367,31.738,31.250,18.066,27.344
1586550974.246,-11.230,32.715,31.250,4.883,-20.020
1586550974.250,35.645,28.809,31.738,23.926,-27.344
1586550974.254,92.285,28.809,30.762,50.781,-7.812
1586550974.258,49.316,27.344,31.738,37.598,26.855
1586550974.262,-16.602,24.414,31.250,10.254,3.906
1586550974.265,10.742,24.414,28.320,16.602,18.555
1586550974.269,74.219,25.879,26.367,38.086,55.664
1586550974.273,67.383,27.344,28.320,39.062,62.500
1586550974.277,-11.719,26.367,29.785,12.695,19.531
1586550974.281,-2.441,27.344,29.785,14.648,37.109
1586550974.285,65.918,29.297,33.203,43.457,30.762
1586550974.289,86.426,29.785,34.180,57.617,15.137
1586550974.293,9.277,31.250,30.762,25.879,9.277
1586550974.297,-6.348,29.297,28.809,7.812,8.301
1586550974.301,52.246,29.297,30.273,30.762,0.000
1586550974.304,100.098,33.203,27.832,56.641,27.832
1586550974.308,36.621,31.250,26.367,33.691,37.598
1586550974.312,-16.113,29.297,28.320,9.766,6.836
1586550974.316,32.715,30.273,29.785,22.949,11.230
1586550974.320,92.285,31.250,30.273,46.875,84.473
1586550974.324,49.316,32.715,30.762,37.109,83.008
1586550974.328,-23.438,33.203,31.738,8.789,-1.465
1586550974.332,7.324,31.738,32.715,11.230,-1.465
1586550974.336,76.172,29.785,33.691,41.992,40.039
1586550974.340,71.777,28.320,34.180,48.340,39.062
1586550974.344,-13.184,27.832,32.227,10.254,13.672
1586550974.347,-10.742,30.273,32.227,3.906,-3.418
1586550974.351,49.316,30.273,31.738,25.879,23.438
1586550974.355,77.637,28.320,30.762,42.969,99.121
1586550974.359,4.883,28.320,30.273,18.066,52.246
1586550974.363,-23.926,27.832,31.738,-1.953,-36.621
1586550974.367,29.297,28.809,32.715,19.531,-43.457
1586550974.371,84.473,29.785,26.367,49.316,26.367
1586550974.375,34.180,28.809,24.414,26.855,43.945
1586550974.379,-24.902,29.297,28.809,-5.859,-4.395
1586550974.383,19.043,30.762,29.785,11.719,-49.805
1586550974.387,83.496,28.809,28.809,48.828,10.742
1586550974.390,51.270,28.809,26.367,41.016,74.219
1586550974.394,-20.020,30.762,27.832,8.301,65.430
1586550974.398,1.953,30.273,29.297,13.184,65.918
1586550974.402,70.801,31.250,28.809,40.527,56.641
1586550974.406,78.613,31.738,32.227,51.758,84.961
1586550974.410,4.395,31.250,33.691,23.926,29.297
1586550974.414,0.977,31.250,32.227,12.695,24.414
1586550974.418,56.152,31.738,29.785,36.133,73.730
1586550974.422,91.797,30.762,30.273,60.547,56.641
1586550974.426,22.949,27.344,32.715,32.227,49.316
1586550974.429,-12.207,27.832,31.250,2.441,15.625
1586550974.433,41.016,27.832,30.273,22.461,-54.199
1586550974.437,92.285,27.344,29.297,62.500,-1.953
1586550974.441,42.969,29.785,28.320,48.828,53.223
1586550974.445,-11.230,30.762,30.273,16.602,-6.836
1586550974.449,29.297,31.738,31.738,27.832,-32.715
1586550974.453,85.938,32.227,31.250,47.852,45.898
1586550974.457,65.430,31.250,31.738,43.457,72.754
1586550974.461,-9.277,30.762,30.762,15.625,23.438
1586550974.465,-0.488,31.738,31.250,14.648,20.020
1586550974.469,65.430,29.297,33.203,46.387,30.273
1586550974.472,87.891,27.344,32.227,57.129,45.410
1586550974.476,2.930,29.785,27.832,19.043,22.949
1586550974.480,-16.602,29.785,28.320,10.742,2.930
1586550974.484,45.410,28.809,29.785,36.133,5.859
1586550974.488,91.797,30.762,31.250,57.617,41.504
1586550974.492,33.203,31.738,33.203,36.621,18.066
1586550974.496,-14.160,31.250,30.273,7.812,-13.184
1586550974.500,28.809,30.273,29.297,18.066,8.301
1586550974.504,90.332,30.762,30.762,50.293,33.691
1586550974.508,50.781,29.297,31.250,40.527,90.820
1586550974.512,-22.461,30.273,29.785,9.766,38.574
1586550974.515,11.230,31.250,30.762,18.066,-13.672
1586550974.519,83.008,29.785,30.762,50.781,63.477
1586550974.523,76.660,31.738,30.273,53.711,59.570
1586550974.527,0.000,31.738,31.250,21.973,-7.324
1586550974.531,2.441,28.809,33.203,13.184,-30.273
1586550974.535,64.941,25.879,33.691,34.180,1.953
1586550974.539,90.820,29.785,30.762,56.152,68.359
1586550974.543,20.508,32.715,33.203,34.668,-9.766
1586550974.547,1.465,29.297,30.762,15.625,-104.980
1586550974.551,51.270,28.809,26.367,34.668,-31.250
1586550974.554,95.703,29.785,28.809,61.523,116.699
1586550974.558,38.574,29.297,28.809,40.039,84.473
1586550974.562,-7.324,31.250,26.367,11.719,0.488
1586550974.566,38.574,30.273,27.832,25.879,-0.488
1586550974.570,92.773,28.320,28.809,54.199,67.383
1586550974.574,51.270,25.879,30.762,43.945,87.891
1586550974.578,-16.602,28.320,31.250,11.719,-15.625
1586550974.582,13.184,31.738,29.785,13.184,-52.246
1586550974.586,77.637,29.785,30.273,41.504,28.809
1586550974.590,84.473,31.250,29.297,49.316,116.211
1586550974.594,0.977,32.715,29.297,14.160,89.355
1586550974.597,-7.324,30.762,30.273,4.395,-6.836
1586550974.601,55.176,30.273,30.273,32.227,36.621
1586550974.605,85.938,29.297,28.809,55.176,103.516
1586550974.609,13.672,29.297,31.250,28.320,23.926
1586550974.613,-19.043,26.367,31.250,0.488,16.602
1586550974.617,30.762,24.414,28.320,13.184,38.574
1586550974.621,83.496,25.391,30.273,46.875,68.359
1586550974.625,32.227,25.391,29.785,37.598,51.758
1586550974.629,-30.273,26.855,26.367,-0.488,17.578
1586550974.633,15.625,27.832,27.344,8.301,36.133
1586550974.637,78.613,25.391,28.320,46.875,63.965
1586550974.640,51.270,27.832,26.855,43.457,74.219
1586550974.644,-14.648,29.297,28.320,10.742,12.207
1586550974.648,2.930,26.367,32.227,15.137,-18.066
1586550974.652,61.523,26.855,31.250,44.434,38.086
1586550974.656,77.148,29.297,29.297,58.105,40.039
1586550974.660,-1.953,29.297,31.738,24.414,23.926
1586550974.664,-15.137,27.832,31.738,7.324,21.484
1586550974.668,44.434,27.344,28.809,29.297,-19.043
1586550974.672,75.195,27.344,28.809,51.270,41.504
1586550974.676,7.812,27.832,30.762,21.973,51.270
1586550974.679,-26.855,29.297,31.250,-6.348,-28.809
1586550974.683,16.602,28.320,30.273,11.230,-32.715
1586550974.687,74.707,28.320,31.250,46.387,39.551
1586550974.691,35.645,30.762,30.762,37.109,93.750
1586550974.695,-28.320,28.320,30.762,4.395,27.344
1586550974.699,10.254,26.367,31.250,13.184,-41.504
1586550974.703,69.824,26.855,28.809,45.898,0.000
1586550974.707,53.711,26.367,29.297,51.270,19.043
1586550974.711,-20.508,26.367,28.809,20.508,-1.465
1586550974.715,-7.324,26.855,25.879,15.625,-10.254
1586550974.719,60.547,26.367,26.855,37.109,25.879
1586550974.722,80.566,29.297,26.367,40.527,72.754
1586550974.726,7.324,31.738,25.879,1.465,61.035
1586550974.730,-12.695,29.297,26.367,-10.254,2.930
1586550974.734,39.062,28.320,26.367,17.090,-20.020
1586550974.738,85.449,27.832,25.391,45.898,46.875
1586550974.742,26.367,26.855,26.367,26.367,73.730
1586550974.746,-25.879,27.832,28.320,7.324,9.277
1586550974.750,17.578,26.855,28.809,24.414,-8.301
1586550974.754,84.473,29.785,30.762,49.316,90.332
1586550974.758,46.387,30.762,30.762,40.527,62.012
1586550974.762,-22.461,29.297,29.297,13.672,-41.992
1586550974.765,9.277,31.250,28.809,20.508,-16.113
1586550974.769,72.266,31.738,31.250,45.410,81.543
1586550974.773,69.336,32.715,31.250,47.363,74.219
1586550974.777,-8.301,34.668,28.809,14.160,49.805
1586550974.781,-7.324,35.156,29.297,6.348,53.711
1586550974.785,58.594,35.156,31.738,30.762,41.992
1586550974.789,86.426,34.180,33.691,47.852,58.105
1586550974.793,11.230,34.180,32.227,20.508,30.762
1586550974.797,-15.625,35.156,30.273,3.906,-8.789
1586550974.801,39.551,33.203,30.762,20.996,-56.152
1586550974.804,98.633,32.715,33.691,51.758,18.555
1586550974.808,38.086,31.738,35.645,37.109,68.848
1586550974.812,-21.973,29.785,35.645,14.160,-23.438
1586550974.816,24.902,32.715,37.109,29.297,26.855
1586550974.820,84.473,33.203,37.109,53.711,116.699
1586550974.824,58.105,30.762,35.645,53.223,92.285
1586550974.828,-12.207,32.227,35.645,19.531,22.949
1586550974.832,7.324,35.645,33.691,17.090,-4.883
1586550974.836,72.266,33.691,29.297,44.922,68.359
1586550974.840,76.172,32.715,31.250,47.363,55.176
1586550974.844,-1.953,34.668,32.715,17.090,31.250
1586550974.847,-7.324,35.645,30.762,10.254,16.602
1586550974.851,58.105,35.156,31.250,33.203,-22.461
1586550974.855,86.914,35.645,29.785,52.734,54.199
1586550974.859,12.695,33.203,26.855,26.367,16.113
1586550974.863,-15.137,29.297,28.809,3.418,-58.105
1586550974.867,42.480,31.250,28.809,21.484,-28.320
1586550974.871,100.098,34.180,28.320,51.758,37.598
1586550974.875,44.922,34.180,30.273,34.668,2.930
1586550974.879,-22.949,33.203,31.738,5.371,-18.066
1586550974.883,11.230,32.715,31.250,17.090,-5.371
1586550974.887,72.754,30.762,29.297,48.340,40.527
1586550974.890,52.734,32.715,27.832,48.340,69.824
1586550974.894,-24.414,34.180,28.320,11.230,18.066
1586550974.898,-8.301,28.809,27.832,7.812,-4.395
1586550974.902,61.035,32.227,32.227,42.480,28.320
1586550974.906,82.520,36.621,34.180,55.664,45.410
1586550974.910,8.789,33.691,28.320,19.531,21.973
1586550974.914,-6.836,33.203,26.367,8.301,49.805
1586550974.918,55.664,34.180,29.785,30.762,46.387
1586550974.922,97.656,35.645,27.344,50.293,80.078
1586550974.926,31.738,36.621,24.414,33.691,87.891
1586550974.929,-9.277,34.668,26.855,11.230,23.438
1586550974.933,39.062,33.691,25.879,27.832,-18.555
1586550974.937,95.703,35.156,23.926,62.988,20.508
1586550974.941,50.293,36.133,25.879,46.875,13.184
1586550974.945,-12.207,38.086,27.344,17.090,-68.848
1586550974.949,21.484,37.109,24.414,28.809,-6.348
1586550974.953,84.961,36.621,21.973,56.641,61.035
1586550974.957,74.707,38.574,24.902,57.129,82.520
1586550974.961,-5.859,35.645,25.391,20.020,53.223
1586550974.965,5.371,35.645,25.879,16.602,9.277
1586550974.969,69.824,37.598,27.344,49.316,3.418
1586550974.972,85.938,36.621,27.832,64.453,49.316
1586550974.976,10.254,37.598,29.785,33.203,60.547
1586550974.980,-8.301,39.062,31.250,18.555,17.578
1586550974.984,56.152,38.574,27.832,43.945,36.133
1586550974.988,104.004,38.086,27.344,66.406,98.633
1586550974.992,35.645,38.086,27.832,35.156,55.176
1586550974.996,-9.766,38.574,26.367,14.160,-18.066
1586550975.000,34.668,36.621,25.879,27.832,-24.414
1586550975.004,92.285,35.156,25.391,53.711,24.902
1586550975.008,62.012,34.180,26.855,47.852,41.016
1586550975.012,-5.371,35.645,27.344,12.695,11.230
1586550975.015,23.438,32.715,25.879,20.996,-21.973
1586550975.019,83.008,30.762,26.855,55.664,-12.207
1586550975.023,69.824,35.156,29.785,62.012,43.457
1586550975.027,-10.742,31.738,32.227,27.832,38.086
1586550975.031,-5.371,26.367,30.762,15.625,15.625
1586550975.035,60.547,28.809,29.785,36.133,27.344
1586550975.039,90.332,29.297,29.785,60.547,88.867
1586550975.043,11.230,26.367,30.762,30.273,12.207
1586550975.047,-17.090,25.391,29.785,-0.488,-9.766
1586550975.051,37.598,24.414,27.344,24.414,46.875
1586550975.054,76.172,28.320,26.855,51.270,37.109
1586550975.058,22.461,31.738,29.297,33.203,38.086
1586550975.062,-27.832,28.809,28.809,8.301,-0.488
1586550975.066,17.578,29.785,26.367,16.602,4.395
1586550975.070,81.055,28.809,27.832,45.898,61.523
1586550975.074,49.805,28.320,27.832,41.504,60.547
1586550975.078,-19.043,29.785,26.855,8.789,16.602
1586550975.082,8.789,29.297,28.809,13.184,-2.930
1586550975.086,72.266,31.250,29.297,38.574,21.973
1586550975.090,82.031,31.738,28.320,55.664,44.922
1586550975.094,2.441,30.273,32.227,29.785,25.391
1586550975.097,-10.254,30.273,32.227,10.742,35.156
1586550975.101,50.293,31.738,29.785,32.227,-6.348
1586550975.105,85.938,31.738,28.809,57.129,18.066
1586550975.109,14.648,31.738,30.273,24.414,1.953
1586550975.113,-18.066,32.227,33.203,-0.488,-1.465
1586550975.117,40.527,33.203,33.691,20.508,22.461
1586550975.121,93.750,32.715,30.273,52.246,60.547
1586550975.125,41.992,32.715,29.785,44.922,41.504
1586550975.129,-18.066,34.668,31.738,15.625,-1.953
1586550975.133,21.484,32.227,29.785,13.672,27.832
1586550975.137,78.125,26.367,26.367,40.039,21.484
1586550975.140,56.152,26.855,25.879,50.293,69.336
1586550975.144,-18.066,29.297,27.344,19.043,55.664
1586550975.148,-1.953,25.879,27.832,10.254,26.367
1586550975.152,69.824,26.367,24.902,36.133,16.113
1586550975.156,86.426,28.320,24.414,48.828,30.273
1586550975.160,17.578,28.320,28.809,21.973,34.668
1586550975.164,10.742,26.367,29.785,6.836,10.254
1586550975.168,53.711,24.902,32.715,26.367,-7.812
1586550975.172,84.961,26.855,36.621,53.223,26.367
1586550975.176,18.066,25.391,38.086,28.809,5.859
1586550975.179,-22.461,23.438,35.645,-0.488,-39.551
1586550975.183,30.762,23.926,33.203,19.043,-12.695
1586550975.187,83.984,23.926,31.738,50.293,33.691
1586550975.191,36.621,22.949,30.273,36.621,19.531
1586550975.195,-25.391,23.926,30.273,11.230,-34.180
1586550975.199,11.230,26.367,31.250,20.508,-19.531
1586550975.203,74.707,26.855,31.250,48.828,53.223
1586550975.207,70.312,26.367,29.297,49.316,88.867
1586550975.211,-8.301,23.926,26.855,11.719,20.996
1586550975.215,-4.395,24.414,26.855,6.836,-56.152
1586550975.219,58.594,24.414,27.832,37.598,-28.809
1586550975.222,81.543,22.461,30.273,54.199,68.848
1586550975.226,9.766,23.926,30.762,28.320,66.895
1586550975.230,-8.789,24.414,29.785,11.719,48.340
1586550975.234,53.711,25.391,25.879,30.273,31.738
1586550975.238,101.074,27.344,25.391,57.129,74.219
1586550975.242,31.250,26.855,27.832,34.668,68.359
1586550975.246,-27.832,28.320,25.879,1.953,-18.066
1586550975.250,12.207,26.855,26.855,8.789,-25.391
1586550975.254,80.078,24.902,28.809,38.574,-2.441
1586550975.258,58.105,27.344,27.832,37.598,27.344
1586550975.262,-21.973,28.809,25.879,1.953,-4.883
1586550975.265,3.418,28.809,26.855,3.906,-16.602
1586550975.269,79.590,29.297,24.902,38.086,4.395
1586550975.273,83.008,30.762,22.461,48.340,57.129
1586550975.277,1.953,32.227,24.414,14.160,43.457
1586550975.281,-2.930,29.297,25.879,0.977,-1.953
1586550975.285,60.059,27.344,26.367,30.762,13.672
1586550975.289,90.820,27.344,26.367,55.176,53.711
1586550975.293,16.113,29.785,25.879,29.785,76.172
1586550975.297,-12.207,33.203,29.785,15.137,27.344
1586550975.301,40.527,28.320,31.738,23.926,-17.090
1586550975.304,84.473,24.902,30.762,41.504,46.875
1586550975.308,31.250,25.391,33.203,33.203,72.754
1586550975.312,-32.227,24.902,31.250,4.883,28.320
1586550975.316,3.418,25.879,30.273,11.719,44.434
1586550975.320,65.918,24.414,31.738,44.434,82.520
1586550975.324,43.945,22.949,33.203,47.852,69.336
1586550975.328,-23.438,23.926,33.691,15.137,69.336
1586550975.332,-4.395,23.438,32.715,13.672,83.008
1586550975.336,58.105,26.855,32.227,43.945,52.734
1586550975.340,69.824,27.344,32.227,57.129,44.434
1586550975.344,-1.465,26.367,32.227,22.949,37.109
1586550975.347,-8.301,30.273,30.762,5.371,34.668
1586550975.351,50.293,32.715,30.762,27.344,43.945
1586550975.355,92.773,32.715,31.250,51.270,79.590
1586550975.359,24.414,32.715,31.250,20.508,50.781
1586550975.363,-11.230,33.691,31.738,-6.836,10.742
1586550975.367,40.527,34.180,29.297,13.184,48.340
1586550975.371,91.797,33.203,28.320,47.363,78.613
1586550975.375,44.922,32.227,27.832,39.551,26.367
1586550975.379,-19.043,32.715,28.809,6.836,-12.695
1586550975.383,14.160,31.250,26.855,13.672,1.953
1586550975.387,79.102,31.738,25.879,48.340,19.043
1586550975.390,70.312,29.785,28.320,46.875,63.965
1586550975.394,-7.324,27.832,30.762,11.230,-14.160
1586550975.398,-0.977,30.273,32.227,18.555,-59.570
1586550975.402,56.641,29.297,29.785,47.852,8.301
1586550975.406,77.637,27.832,30.273,59.082,67.871
1586550975.410,7.324,26.367,33.691,32.227,44.922
1586550975.414,-15.137,26.367,34.180,20.020,26.367
1586550975.418,36.133,25.879,33.691,41.016,69.336
1586550975.422,82.031,23.926,32.715,60.547,78.613
1586550975.426,22.461,24.902,32.715,33.203,35.645
1586550975.429,-31.250,26.367,33.691,-1.465,-8.789
1586550975.433,15.137,22.949,33.203,7.812,-21.484
1586550975.437,82.520,22.949,31.738,45.410,37.598
1586550975.441,54.199,26.367,32.715,35.645,92.773
1586550975.445,-12.207,25.879,33.691,2.441,61.523
1586550975.449,11.719,27.832,31.738,9.277,-15.137
1586550975.453,76.172,28.809,30.273,30.273,-5.371
1586550975.457,75.684,27.344,28.809,30.762,49.316
1586550975.461,-6.836,27.832,28.320,0.000,47.363
1586550975.465,-11.719,26.855,27.832,-2.930,-22.949
1586550975.469,43.945,24.902,27.832,26.855,-1.953
1586550975.472,71.289,26.367,27.344,45.410,56.641
1586550975.476,2.930,26.367,26.367,20.020,40.527
1586550975.480,-21.973,25.391,28.320,0.977,-2.930
1586550975.484,37.109,26.367,28.320,13.184,13.184
1586550975.488,80.566,23.438,24.902,37.598,85.938
1586550975.492,21.484,20.996,24.414,25.391,25.391
1586550975.496,-31.250,23.926,26.855,1.953,3.418
1586550975.500,12.207,25.879,27.832,16.602,51.270
1586550975.504,79.590,26.367,27.832,47.363,81.543
1586550975.508,54.199,28.320,28.320,39.062,105.957
1586550975.512,-16.113,29.297,27.832,11.719,45.898
1586550975.515,6.836,28.320,28.320,20.020,-21.973
1586550975.519,72.754,30.273,26.367,46.875,38.086
1586550975.523,77.637,30.762,26.367,53.223,48.340
1586550975.527,-3.418,31.250,28.809,22.949,-29.785
1586550975.531,-4.395,32.715,29.297,12.695,-20.020
1586550975.535,58.105,32.227,25.879,27.832,21.484
1586550975.539,84.961,30.273,25.879,45.898,73.242
1586550975.543,11.230,29.785,27.344,28.809,24.902
1586550975.547,-15.625,32.227,30.273,15.625,-9.766
1586550975.551,39.551,30.762,29.297,28.320,27.344
1586550975.554,94.727,27.344,25.391,49.805,35.156
1586550975.558,37.598,26.855,28.809,33.203,15.625
1586550975.562,-30.273,26.855,29.785,-1.465,22.461
1586550975.566,15.625,26.367,30.273,13.184,51.758
1586550975.570,83.496,28.320,28.320,49.805,55.176
1586550975.574,66.406,31.738,24.902,47.852,67.383
1586550975.578,-8.789,32.227,26.855,8.301,8.789
1586550975.582,3.418,36.133,27.832,2.441,-16.113
1586550975.586,67.871,36.133,26.855,35.156,3.906
1586550975.590,83.984,33.691,26.855,52.734,23.926
1586550975.594,0.488,33.203,28.320,24.414,42.480
1586550975.597,-18.555,32.227,26.855,5.859,0.000
1586550975.601,41.992,31.250,25.391,25.879,2.441
1586550975.605,86.914,31.738,25.879,53.223,42.969
1586550975.609,21.973,30.273,28.809,34.180,27.344
1586550975.613,-20.020,30.762,29.785,17.090,-20.996
1586550975.617,34.180,32.715,26.367,33.203,-70.801
1586550975.621,91.309,29.297,26.367,52.734,12.207
1586550975.625,48.828,27.832,28.809,40.039,62.988
1586550975.629,-15.137,27.344,27.344,9.277,39.551
1586550975.633,15.625,28.809,24.902,14.648,-8.301
1586550975.637,80.566,29.297,26.367,44.922,1.465
1586550975.640,76.172,30.273,27.832,49.805,35.645
1586550975.644,0.488,35.156,27.832,17.090,40.527
1586550975.648,3.418,34.668,27.832,10.742,15.625
1586550975.652,63.965,32.715,29.297,36.133,9.766
1586550975.656,86.914,34.180,28.809,50.781,39.551
1586550975.660,5.859,29.297,30.762,19.043,27.832
1586550975.664,-13.672,28.809,32.715,7.324,-13.184
1586550975.668,46.875,31.738,26.855,31.738,-0.488
1586550975.672,90.820,30.273,26.367,55.664,74.707
1586550975.676,40.039,27.832,30.762,39.551,75.195
1586550975.679,0.000,30.273,28.809,15.137,44.922
1586550975.683,41.016,34.180,27.344,27.832,-6.836
1586550975.687,106.445,33.691,26.367,58.594,20.020
1586550975.691,78.613,34.180,26.367,46.875,65.918
1586550975.695,-14.160,34.668,30.273,6.348,-30.762
1586550975.699,2.441,35.156,26.855,13.672,-62.500
1586550975.703,75.684,33.203,26.367,52.734,30.762
1586550975.707,66.406,29.785,27.832,60.547,47.852
1586550975.711,-12.207,29.297,26.855,29.785,-6.348
1586550975.715,-7.324,27.832,27.832,28.320,-7.324
1586550975.719,54.688,31.250,27.832,53.223,55.176
1586550975.722,89.844,30.273,29.297,68.848,112.305
1586550975.726,20.020,27.344,31.250,35.156,69.824
1586550975.730,-9.277,33.203,31.738,10.742,-45.410
1586550975.734,42.969,35.645,32.715,33.203,-62.500
1586550975.738,93.750,30.762,28.809,59.570,32.715
1586550975.742,41.992,29.297,28.320,38.086,60.059
1586550975.746,-17.090,31.250,30.273,11.719,-9.277
1586550975.750,20.508,30.273,28.320,22.461,-4.883
1586550975.754,85.449,33.691,26.367,51.270,50.781
1586550975.758,63.965,35.645,27.344,48.828,34.668
1586550975.762,-12.207,33.691,31.738,15.625,-6.836
1586550975.765,7.812,34.668,33.203,17.578,-27.344
1586550975.769,74.219,34.668,30.273,43.457,-21.484
1586550975.773,87.891,32.715,30.273,54.688,50.781
1586550975.777,10.742,33.691,31.250,24.902,57.129
1586550975.781,-6.836,33.691,28.809,15.137,23.926
1586550975.785,57.617,32.227,28.320,37.598,53.223
1586550975.789,96.191,33.691,30.273,57.129,82.031
1586550975.793,20.996,32.227,32.227,33.691,33.691
1586550975.797,-13.672,27.832,33.691,12.695,23.438
1586550975.801,41.016,25.879,33.691,34.668,5.371
1586550975.804,93.262,22.949,35.156,67.871,8.301
1586550975.808,46.387,27.832,36.621,52.734,73.730
1586550975.812,-19.043,31.250,35.645,15.137,84.473
1586550975.816,7.812,28.320,34.668,14.648,40.527
1586550975.820,67.383,30.762,33.203,51.270,41.992
1586550975.824,56.152,32.715,30.273,52.734,37.598
1586550975.828,-12.207,32.715,28.320,13.184,-13.672
1586550975.832,-1.953,31.250,26.855,8.789,-24.902
1586550975.836,52.734,28.320,28.320,31.738,-19.043
1586550975.840,68.848,24.902,31.250,36.621,6.836
1586550975.844,-8.301,25.879,32.227,3.906,21.973
1586550975.847,-25.879,29.297,31.738,-8.789,80.566
1586550975.851,36.133,27.832,30.762,19.043,69.336
1586550975.855,83.008,25.391,31.738,46.387,44.922
1586550975.859,19.043,25.879,33.203,25.391,-31.738
1586550975.863,-23.438,26.367,32.227,0.000,-10.742
1586550975.867,23.438,24.414,31.738,15.625,86.426
1586550975.871,86.914,25.391,32.715,58.105,74.219
1586550975.875,48.828,28.320,34.668,54.688,44.434
1586550975.879,-27.832,25.391,35.645,20.996,8.301
1586550975.883,3.906,23.926,34.668,21.484,-14.648
1586550975.887,75.195,26.367,34.180,43.457,-1.953
1586550975.890,72.266,26.367,32.227,47.852,1.465
1586550975.894,-9.766,25.391,31.738,12.695,-18.066
1586550975.898,-6.348,26.855,35.645,9.277,37.598
1586550975.902,60.059,28.809,37.598,40.527,37.109
1586550975.906,73.730,28.320,33.203,52.734,28.320
1586550975.910,-4.883,27.832,29.297,20.508,28.809
1586550975.914,-20.020,28.809,28.809,3.418,3.906
1586550975.918,37.598,27.344,28.809,18.066,31.738
1586550975.922,85.938,28.320,29.297,42.969,66.895
1586550975.926,23.926,28.809,28.320,29.297,21.484
1586550975.929,-30.273,27.344,26.367,2.930,20.996
1586550975.933,15.137,31.250,26.855,13.184,64.453
1586550975.937,80.078,29.785,26.367,41.016,85.449
1586550975.941,50.781,26.367,25.391,33.203,31.738
1586550975.945,-28.320,28.809,26.855,-2.441,30.273
1586550975.949,-6.348,29.785,27.832,3.906,75.684
1586550975.953,56.641,28.809,29.297,39.062,48.340
1586550975.957,67.383,27.344,28.809,53.711,77.637
1586550975.961,-0.488,30.273,28.320,20.020,68.848
1586550975.965,-6.348,29.785,31.250,4.395,10.742
1586550975.969,52.734,28.320,33.203,24.414,14.160
1586550975.972,83.008,31.250,31.738,41.504,73.730
1586550975.976,2.930,29.297,31.250,13.672,79.590
1586550975.980,-31.738,26.855,31.738,-4.395,60.059
1586550975.984,23.926,25.879,30.273,18.066,59.570
1586550975.988,78.125,24.902,32.715,51.270,58.594
1586550975.992,29.297,28.320,29.785,33.691,62.988
1586550975.996,-33.203,25.391,26.855,-1.953,18.555
1586550976.000,6.348,26.855,28.809,8.789,27.344
1586550976.004,77.637,34.180,28.320,41.504,83.984
1586550976.008,59.570,33.691,28.809,41.504,31.250
1586550976.012,-14.648,35.156,29.297,11.719,-12.695
1586550976.015,5.371,37.109,27.832,9.766,37.598
1586550976.019,73.730,36.133,27.344,33.691,65.918
1586550976.023,86.426,35.156,29.297,45.898,76.172
1586550976.027,8.789,40.039,30.273,17.578,-2.441
1586550976.031,-6.348,39.062,29.297,5.859,-41.504
1586550976.035,52.246,36.621,28.809,29.785,-7.324
1586550976.039,96.680,38.574,29.785,53.711,5.371
1586550976.043,31.250,38.086,31.738,37.598,-6.836
1586550976.047,-14.160,34.668,31.250,19.043,-40.039
1586550976.051,28.320,33.691,29.785,23.926,-1.953
1586550976.054,79.590,30.273,30.273,43.945,61.523
1586550976.058,42.969,27.832,31.250,37.598,41.016
1586550976.062,-21.484,30.273,31.250,3.418,58.594
1586550976.066,12.695,29.297,35.156,14.160,49.805
1586550976.070,82.031,28.809,37.109,55.176,21.484
1586550976.074,68.359,28.809,34.668,50.781,44.434
1586550976.078,-4.395,26.855,31.738,15.137,-3.418
1586550976.082,12.695,27.344,29.297,11.719,-9.766
1586550976.086,71.289,29.297,30.273,36.133,33.691
1586550976.090,82.520,32.227,30.273,56.641,91.309
1586550976.094,3.906,32.227,29.785,30.273,34.180
1586550976.097,-13.672,31.250,28.809,11.719,5.371
1586550976.101,41.504,32.227,29.785,33.691,3.906
1586550976.105,82.520,33.203,26.855,56.641,50.293
1586550976.109,20.996,32.715,26.367,30.273,65.918
1586550976.113,-21.973,30.762,29.785,2.441,-20.020
1586550976.117,26.855,29.785,28.320,17.090,8.301
1586550976.121,86.426,29.297,28.320,50.781,29.785
1586550976.125,56.152,29.297,28.320,48.340,18.066
1586550976.129,-14.160,30.273,28.809,18.555,24.902
1586550976.133,9.766,30.273,28.809,20.508,38.086
1586550976.137,79.590,29.297,30.273,50.293,27.832
1586550976.140,81.055,33.203,32.227,58.594,61.523
1586550976.144,1.465,34.668,32.227,27.832,40.039
1586550976.148,-1.953,34.668,29.785,20.996,40.039
1586550976.152,62.500,34.668,25.879,41.992,75.195
1586550976.156,94.238,35.645,25.879,59.082,46.875
1586550976.160,16.602,35.156,28.809,30.762,21.484
1586550976.164,-7.812,32.715,29.297,8.301,-26.855
1586550976.168,45.410,32.227,28.320,26.367,-5.859
1586550976.172,87.891,33.691,29.297,55.176,53.711
1586550976.176,34.668,30.762,30.273,42.480,16.113
1586550976.179,-23.926,31.250,28.320,14.648,17.090
1586550976.183,15.137,32.227,27.832,23.438,32.227
1586550976.187,82.031,30.273,26.855,55.664,65.918
1586550976.191,58.594,31.738,25.879,52.734,88.379
1586550976.195,-22.461,29.785,27.832,10.742,33.203
1586550976.199,-2.930,26.855,29.297,8.301,28.809
1586550976.203,71.289,27.344,27.344,39.062,16.113
1586550976.207,77.637,29.297,29.297,50.293,28.320
1586550976.211,-6.348,29.785,32.227,17.578,8.789
1586550976.215,-7.324,27.832,31.738,5.859,-0.977
1586550976.219,58.594,26.367,31.250,29.785,5.371
1586550976.222,85.938,29.785,28.320,51.270,30.762
1586550976.226,13.672,31.738,28.809,34.180,43.457
1586550976.230,-14.160,27.344,28.320,11.719,-24.414
1586550976.234,35.156,24.414,27.344,25.879,-37.598
1586550976.238,93.262,28.809,30.762,59.570,16.602
1586550976.242,54.199,31.738,32.227,42.969,34.668
1586550976.246,-11.230,30.273,29.297,9.766,58.594
1586550976.250,21.484,26.855,28.809,23.926,24.902
1586550976.254,84.473,26.855,25.391,59.570,-31.250
1586550976.258,65.430,30.762,25.391,60.547,36.621
1586550976.262,-10.742,28.320,29.785,20.996,70.801
1586550976.265,10.742,26.367,30.273,17.578,31.250
1586550976.269,75.684,29.297,29.785,41.016,40.527
1586550976.273,92.773,30.762,30.762,48.340,69.824
1586550976.277,13.184,31.250,30.273,23.438,3.418
1586550976.281,-15.625,28.809,30.273,11.719,7.812
1586550976.285,46.875,29.785,28.809,30.273,20.508
1586550976.289,94.727,31.738,28.320,46.387,20.020
1586550976.293,28.320,32.227,30.273,25.391,15.137
1586550976.297,-10.254,33.691,29.297,5.859,-37.598
1586550976.301,34.668,31.738,30.273,19.531,23.926
1586550976.304,84.473,30.273,26.855,51.270,62.988
1586550976.308,41.016,32.715,28.809,37.109,56.152
1586550976.312,-28.809,32.227,34.180,5.859,3.418
1586550976.316,2.930,30.762,32.227,17.578,18.066
1586550976.320,76.660,33.203,31.250,41.504,35.645
1586550976.324,72.754,34.180,33.203,45.898,-12.695
1586550976.328,-12.695,32.227,31.250,13.672,-17.090
1586550976.332,-5.859,32.715,26.367,9.277,39.062
1586550976.336,65.430,30.762,24.902,36.133,70.801
1586550976.340,94.727,27.832,28.809,49.805,76.660
1586550976.344,19.043,30.762,28.809,17.090,67.383
1586550976.347,-16.602,30.273,28.320,-4.883,34.180
1586550976.351,34.180,29.785,30.762,24.414,58.594
1586550976.355,86.914,30.273,30.273,62.012,63.477
1586550976.359,32.715,31.250,31.250,39.062,40.527
1586550976.363,-19.043,30.762,33.203,4.883,56.152
1586550976.367,21.484,29.785,31.250,22.949,82.031
1586550976.371,82.031,30.273,30.273,53.711,97.168
1586550976.375,53.223,30.273,32.715,41.504,58.105
1586550976.379,-16.113,32.227,32.227,8.301,25.879
1586550976.383,9.277,32.227,32.227,19.043,-11.230
1586550976.387,69.824,27.832,29.785,49.316,-6.836
1586550976.390,72.754,29.785,28.809,59.082,45.410
1586550976.394,1.953,34.180,31.738,28.320,51.758
1586550976.398,5.859,35.156,30.273,11.719,36.133
1586550976.402,73.242,34.668,27.832,34.180,2.930
1586550976.406,103.516,34.668,29.297,55.176,29.297
1586550976.410,22.461,35.156,30.762,23.926,56.152
1586550976.414,-15.137,34.180,31.738,4.395,9.277
1586550976.418,31.738,33.691,34.180,22.461,37.598
1586550976.422,81.055,35.156,33.203,52.734,67.383
1586550976.426,29.297,34.180,33.691,37.109,24.414
1586550976.429,-33.203,31.738,34.180,-2.441,25.879
1586550976.433,11.230,28.809,30.762,9.277,21.484
1586550976.437,77.148,27.832,31.250,47.363,41.504
1586550976.441,57.617,29.297,34.668,46.387,18.066
1586550976.445,-13.672,30.273,33.691,9.766,-36.621
1586550976.449,-0.488,28.809,28.320,4.883,44.434
1586550976.453,60.547,30.762,25.879,38.086,96.680
1586550976.457,72.266,31.738,28.809,60.059,44.434
1586550976.461,-3.418,30.762,32.715,27.344,26.855
1586550976.465,-19.043,34.668,31.738,3.418,22.461
1586550976.469,40.039,34.180,29.297,30.273,50.781
1586550976.472,82.031,33.203,28.809,53.223,70.312
1586550976.476,14.160,34.668,32.715,25.391,27.344
1586550976.480,-25.391,33.203,34.180,1.465,27.344
1586550976.484,30.273,32.715,31.738,17.090,12.695
1586550976.488,86.914,32.227,29.297,45.898,16.602
1586550976.492,36.133,30.273,28.809,29.297,66.406
1586550976.496,-31.250,31.250,30.273,-1.953,43.945
1586550976.500,1.465,30.762,29.785,2.930,34.668
1586550976.504,72.266,28.809,28.809,34.668,49.805
1586550976.508,63.965,29.785,29.297,40.527,40.039
1586550976.512,-17.578,32.227,30.762,-1.465,44.434
1586550976.515,-12.207,33.203,31.738,-6.348,40.527
1586550976.519,56.641,32.715,30.762,33.203,55.664
1586550976.523,80.566,31.738,30.273,51.270,48.340
1586550976.527,0.977,32.227,30.273,18.066,17.090
1586550976.531,-18.555,34.180,29.297,3.906,1.465
1586550976.535,41.016,34.668,29.785,29.297,59.570
1586550976.539,87.891,32.715,29.785,51.270,40.039
1586550976.543,21.484,32.227,29.297,26.367,-11.230
1586550976.547,-27.344,30.762,29.785,2.441,-32.715
1586550976.551,21.973,29.785,30.762,20.508,-57.129
1586550976.554,84.961,31.738,32.227,55.176,-6.348
1586550976.558,52.734,34.180,30.762,45.410,6.348
1586550976.562,-21.973,34.180,30.273,6.836,-38.086
1586550976.566,-1.953,30.762,29.297,8.789,15.137
1586550976.570,66.406,29.785,28.809,39.062,38.574
1586550976.574,68.359,30.273,29.297,47.363,30.273
1586550976.578,-8.789,32.227,27.832,16.113,83.496
1586550976.582,-7.324,29.785,28.320,7.812,23.926
1586550976.586,52.734,32.227,28.320,36.621,-23.438
1586550976.590,78.613,32.715,26.855,58.105,14.648
1586550976.594,2.930,30.762,26.855,25.879,18.555
1586550976.597,-19.043,30.273,27.832,8.789,54.199
1586550976.601,42.480,29.297,31.250,30.762,27.832
1586550976.605,92.285,31.250,29.785,56.152,-18.066
1586550976.609,37.598,32.715,27.344,41.016,-27.344
1586550976.613,-19.531,32.227,27.832,8.789,4.883
1586550976.617,24.902,32.715,27.344,13.184,19.043
1586550976.621,97.656,31.250,25.879,46.387,-1.465
1586550976.625,68.359,29.297,27.344,49.805,25.879
1586550976.629,-18.555,29.297,27.832,14.160,-11.230
1586550976.633,-6.836,27.832,28.320,10.254,-44.922
1586550976.637,54.688,25.879,30.273,42.480,44.434
1586550976.640,62.012,28.809,26.855,46.387,63.477
1586550976.644,-11.719,28.320,27.344,12.207,-10.742
1586550976.648,-12.695,26.367,24.902,8.301,-23.926
1586550976.652,48.340,28.809,25.391,29.297,-16.113
1586550976.656,80.078,29.297,30.762,46.875,17.578
1586550976.660,18.066,28.809,32.227,30.273,29.297
1586550976.664,-10.254,32.227,31.738,13.672,30.762
1586550976.668,40.527,35.156,31.250,31.250,15.137
1586550976.672,91.309,35.645,29.297,58.594,32.227
1586550976.676,38.086,31.738,27.344,39.551,43.945
1586550976.679,-24.414,30.762,28.809,6.348,0.488
1586550976.683,15.625,30.273,30.762,14.648,-87.402
1586550976.687,85.938,27.832,27.832,48.340,-26.855
1586550976.691,66.406,29.785,24.414,51.270,65.430
1586550976.695,-4.883,32.227,27.344,19.043,26.367
1586550976.699,15.137,30.762,29.297,17.090,27.344
1586550976.703,79.590,32.227,28.320,51.270,41.992
1586550976.707,86.914,33.691,30.273,69.824,40.527
1586550976.711,5.371,27.344,30.762,40.039,39.062
1586550976.715,-3.418,28.320,31.250,24.902,61.035
1586550976.719,55.664,30.273,28.809,41.504,85.449
1586550976.722,97.168,29.297,26.855,61.035,80.078
1586550976.726,29.785,28.809,28.809,33.691,68.848
1586550976.730,-9.766,28.320,29.297,12.207,38.574
1586550976.734,45.410,31.738,28.320,32.227,20.996
1586550976.738,101.562,32.227,28.809,60.059,69.336
1586550976.742,56.152,31.250,32.715,54.688,35.645
1586550976.746,-7.812,32.715,34.180,22.461,-47.852
1586550976.750,23.438,34.180,31.738,20.020,-33.203
1586550976.754,84.961,32.715,28.320,44.922,38.574
1586550976.758,73.730,30.273,26.367,44.434,20.508
1586550976.762,-6.348,31.738,28.809,10.254,-47.852
1586550976.765,5.371,32.715,28.320,5.371,9.277
1586550976.769,65.430,28.320,27.832,36.621,55.664
1586550976.773,82.520,28.320,27.344,61.035,84.473
1586550976.777,6.836,29.297,27.344,31.738,54.199
1586550976.781,-12.207,29.785,26.367,7.324,33.691
1586550976.785,50.781,32.715,23.438,28.809,70.801
1586550976.789,91.797,29.297,22.949,54.688,52.734
1586550976.793,26.367,25.391,26.367,30.273,94.238
1586550976.797,-23.438,25.391,28.320,6.836,75.195
1586550976.801,20.020,25.391,28.320,22.461,-2.930
1586550976.804,88.379,27.344,30.762,50.781,45.898
1586550976.808,56.641,28.809,30.273,41.992,45.410
1586550976.812,-17.578,29.297,27.832,8.301,13.672
1586550976.816,12.695,28.809,30.762,14.648,-29.297
1586550976.820,74.219,31.250,35.156,40.527,-13.672
1586550976.824,68.359,31.738,34.668,43.457,25.879
1586550976.828,-8.301,29.785,32.715,10.742,7.812
1586550976.832,-9.277,29.297,32.715,2.441,54.199
1586550976.836,51.270,28.809,30.273,31.738,18.066
1586550976.840,88.867,29.785,27.832,58.594,25.391
1586550976.844,17.090,31.250,29.785,31.250,50.781
1586550976.847,-19.531,30.762,29.785,0.977,4.395
1586550976.851,34.180,32.227,28.320,18.555,13.184
1586550976.855,86.426,35.156,30.273,49.316,39.551
1586550976.859,35.156,33.691,29.297,37.598,82.031
1586550976.863,-15.625,31.738,26.367,3.906,35.156
1586550976.867,17.578,31.250,27.344,10.254,66.895
1586550976.871,70.801,30.762,29.297,46.875,154.785
1586550976.875,47.363,29.297,31.738,46.387,75.684
1586550976.879,-24.902,29.785,30.273,11.719,14.648
1586550976.883,-0.488,30.762,27.832,17.578,9.277
1586550976.887,64.453,28.320,28.809,52.246,-11.719
1586550976.890,80.078,28.320,28.320,65.430,6.836
1586550976.894,9.766,33.691,27.832,37.598,17.090
1586550976.898,-7.812,36.133,31.250,19.531,24.902
1586550976.902,47.852,31.738,35.156,30.273,25.391
1586550976.906,92.773,29.785,35.645,47.852,86.426
1586550976.910,19.531,29.297,35.156,18.066,67.383
1586550976.914,-22.949,26.855,35.156,-6.836,7.324
1586550976.918,30.762,26.367,35.156,18.066,2.441
1586550976.922,87.891,25.879,37.598,51.270,15.625
1586550976.926,44.922,29.297,38.574,38.086,48.340
1586550976.929,-17.578,32.227,37.109,4.883,43.945
1586550976.933,17.090,30.762,35.156,12.207,-0.977
1586550976.937,86.426,28.809,35.156,48.340,18.066
1586550976.941,73.242,30.273,35.645,50.293,49.805
1586550976.945,-9.766,30.762,35.645,11.719,-15.137
1586550976.949,-0.488,28.320,34.668,7.324,-5.371
1586550976.953,62.500,27.344,31.738,37.109,16.602
1586550976.957,79.590,25.879,31.250,57.617,25.879
1586550976.961,4.883,26.855,34.180,26.855,0.977
1586550976.965,-11.230,27.832,34.180,4.395,-21.484
1586550976.969,49.805,27.832,33.691,29.297,13.672
1586550976.972,90.332,28.320,31.250,54.688,50.293
1586550976.976,21.484,28.320,32.227,29.297,7.324
1586550976.980,-23.438,27.832,34.668,7.812,-8.789
1586550976.984,29.785,28.320,33.203,17.090,87.402
1586550976.988,93.262,30.273,32.715,45.410,97.656
1586550976.992,53.223,28.320,34.180,39.551,83.496
1586550976.996,-16.113,27.832,32.715,7.812,57.129
1586550977.000,8.789,27.344,32.715,15.625,28.809
1586550977.004,73.730,27.832,30.273,41.504,28.809
1586550977.008,71.289,28.809,30.273,53.711,31.250
1586550977.012,-10.742,26.855,34.180,30.273,27.832
1586550977.015,-6.348,26.855,33.203,23.438,6.348
1586550977.019,61.035,28.320,31.738,53.223,20.508
1586550977.023,85.449,30.273,31.738,60.547,38.086
1586550977.027,9.277,30.273,31.250,20.020,-0.977
1586550977.031,-6.348,31.250,27.832,4.883,-54.688
1586550977.035,52.246,31.738,27.344,28.320,-17.578
1586550977.039,92.285,29.785,28.320,59.082,41.016
1586550977.043,35.156,29.297,28.809,42.969,93.262
1586550977.047,-17.090,30.273,27.344,9.766,40.039
1586550977.051,21.973,31.250,27.832,22.461,-6.348
1586550977.054,83.984,32.227,30.762,52.734,66.406
1586550977.058,60.547,31.738,28.809,45.410,40.039
1586550977.062,-15.137,31.738,29.785,10.742,5.859
1586550977.066,7.324,31.250,31.250,15.137,28.320
1586550977.070,76.660,31.738,28.809,47.363,23.926
1586550977.074,76.172,32.715,30.273,56.152,70.312
1586550977.078,-7.324,32.715,32.227,20.020,83.984
1586550977.082,-10.742,30.762,33.203,17.090,14.160
1586550977.086,46.875,29.785,33.691,44.922,31.738
1586550977.090,80.078,30.762,31.250,58.105,87.402
1586550977.094,8.301,29.785,28.320,27.344,26.855
1586550977.097,-28.320,28.320,32.227,1.953,50.781
1586550977.101,24.414,27.832,34.180,21.484,52.246
1586550977.105,79.102,27.344,30.273,49.805,29.785
1586550977.109,31.250,27.832,30.762,38.086,50.293
1586550977.113,-23.926,28.809,33.203,10.254,41.504
1586550977.117,16.113,30.273,31.250,16.113,59.570
1586550977.121,81.543,30.273,30.273,54.199,43.457
1586550977.125,69.336,29.297,29.785,59.570,19.531
1586550977.129,-10.742,28.320,27.832,30.273,22.949
1586550977.133,-6.348,30.273,29.785,21.484,40.039
1586550977.137,58.105,31.738,29.785,38.574,55.664
1586550977.140,74.707,32.227,29.297,57.129,70.801
1586550977.144,-0.488,31.250,28.320,26.855,51.758
1586550977.148,-5.859,29.785,25.391,5.859,-18.555
1586550977.152,60.547,30.273,25.391,32.227,-36.133
1586550977.156,95.703,32.715,25.879,56.641,31.738
1586550977.160,27.832,33.691,23.926,33.691,13.672
1586550977.164,-6.348,32.715,24.902,12.207,-56.152
1586550977.168,43.457,30.762,26.367,28.809,-29.785
1586550977.172,102.051,30.762,25.391,61.035,57.617
1586550977.176,61.523,29.785,27.344,45.898,5.371
1586550977.179,-12.207,27.832,26.855,9.766,-59.570
1586550977.183,22.461,30.273,26.855,16.602,0.000
1586550977.187,83.496,32.227,29.297,50.781,58.105
1586550977.191,64.941,29.785,31.250,55.176,79.590
1586550977.195,-12.695,30.273,29.297,16.113,19.043
1586550977.199,-3.906,29.297,25.879,9.766,4.883
1586550977.203,63.965,28.320,26.367,41.992,31.250
1586550977.207,85.938,27.832,26.367,54.199,45.898
1586550977.211,4.395,26.367,26.367,18.066,36.621
1586550977.215,-14.160,26.855,28.809,7.324,-7.812
1586550977.219,41.992,26.367,27.832,31.738,0.977
1586550977.222,89.844,27.832,26.855,56.152,56.641
1586550977.226,34.180,29.297,28.809,34.668,31.250
1586550977.230,-18.066,26.367,27.344,5.371,28.320
1586550977.234,21.973,27.344,27.344,21.484,52.734
1586550977.238,83.008,28.809,24.414,53.711,41.016
1586550977.242,50.293,26.855,24.902,40.527,14.160
1586550977.246,-17.578,28.809,29.297,3.418,-0.488
1586550977.250,13.672,29.785,29.297,7.324,51.270
1586550977.254,71.777,29.297,27.832,39.062,82.031
1586550977.258,67.871,30.273,31.738,46.387,75.684
1586550977.262,-11.230,30.762,34.668,16.113,46.387
1586550977.265,-10.742,31.738,29.297,11.230,61.035
1586550977.269,57.617,32.227,29.785,33.203,50.293
1586550977.273,84.961,33.203,28.809,44.922,46.387
1586550977.277,8.301,32.715,27.832,14.648,25.879
1586550977.281,-16.602,31.738,29.785,0.977,30.762
1586550977.285,41.992,31.738,29.297,24.414,0.977
1586550977.289,90.820,31.250,26.855,52.734,37.109
1586550977.293,31.738,30.762,26.855,34.668,56.641
1586550977.297,-20.996,30.273,28.809,3.906,-24.414
1586550977.301,23.926,30.273,29.785,17.090,-1.465
1586550977.304,91.309,29.297,29.785,50.781,35.645
1586550977.308,66.895,30.762,30.273,46.387,20.020
1586550977.312,-15.137,30.273,31.738,11.719,10.254
1586550977.316,0.000,28.320,32.715,13.184,14.160
1586550977.320,66.895,30.762,30.762,48.828,47.363
1586550977.324,81.543,33.691,31.250,56.641,95.703
1586550977.328,-0.488,30.273,33.691,18.066,64.453
1586550977.332,-12.207,30.273,29.785,-0.488,-14.160
1586550977.336,49.316,31.250,28.809,24.902,30.273
1586550977.340,84.473,29.297,33.203,56.641,98.145
1586550977.344,15.625,29.297,35.156,34.180,64.453
1586550977.347,-12.695,29.297,36.133,7.812,77.148
1586550977.351,45.410,29.297,36.133,23.926,47.363
1586550977.355,105.469,28.809,35.156,57.617,0.488
1586550977.359,53.223,28.320,35.645,41.992,92.773
1586550977.363,-23.926,30.762,35.156,8.301,64.453
1586550977.367,10.742,29.785,33.691,18.555,-19.043
1586550977.371,81.055,27.832,33.691,48.828,15.625
1586550977.375,62.500,27.344,32.227,45.410,41.504
1586550977.379,-24.414,25.879,33.691,10.254,5.371
1586550977.383,-10.742,25.391,36.133,4.883,-0.488
1586550977.387,65.430,27.832,35.156,30.273,24.414
1586550977.390,87.402,28.809,36.133,48.340,59.570
1586550977.394,6.836,30.762,34.668,19.531,52.734
1586550977.398,-12.207,26.855,33.203,7.324,-17.578
1586550977.402,45.898,26.367,36.621,30.762,-44.922
1586550977.406,87.402,31.738,34.180,57.129,10.254
1586550977.410,24.414,33.203,33.203,38.086,70.801
1586550977.414,-20.508,33.203,35.156,9.277,29.297
1586550977.418,25.391,32.715,32.227,21.484,-18.066
1586550977.422,82.520,33.203,31.250,54.688,58.105
1586550977.426,44.922,32.715,32.227,38.574,23.438
1586550977.429,-21.973,33.691,30.273,0.000,-44.434
1586550977.433,5.371,32.227,28.809,5.371,-7.812
1586550977.437,75.195,32.715,30.762,35.645,-16.602
1586550977.441,72.266,33.203,32.715,49.805,-7.812
1586550977.445,-8.301,29.785,31.250,21.973,-35.156
1586550977.449,1.465,29.785,30.762,12.207,-33.203
1586550977.453,66.895,31.738,31.250,40.039,0.488
1586550977.457,85.938,30.762,31.250,53.223,33.203
1586550977.461,7.812,27.832,32.715,19.043,24.414
1586550977.465,-10.254,26.367,35.156,8.789,-16.113
1586550977.469,44.922,28.809,34.180,35.156,0.000
1586550977.472,87.402,31.250,32.715,54.688,46.875
1586550977.476,33.203,26.855,33.691,35.645,49.316
1586550977.480,-16.113,24.414,35.645,12.695,51.758
1586550977.484,25.391,25.879,35.645,26.367,73.730
1586550977.488,89.355,23.926,33.203,62.012,85.938
1586550977.492,58.594,24.902,33.691,48.828,71.289
1586550977.496,-17.578,26.855,34.180,10.742,-28.320
1586550977.500,1.953,28.320,30.762,14.160,-62.012
1586550977.504,63.477,26.855,31.738,41.504,8.301
1586550977.508,61.035,25.391,33.691,47.852,48.828
1586550977.512,-15.625,23.926,33.203,17.090,32.227
1586550977.515,-17.578,23.438,32.715,9.766,-5.371
1586550977.519,46.875,25.879,34.180,35.645,-24.902
1586550977.523,81.543,26.855,35.645,56.152,11.719
1586550977.527,6.348,22.949,36.621,26.855,52.246
1586550977.531,-23.926,22.949,35.645,4.883,57.129
1586550977.535,36.621,26.855,35.645,20.020,48.340
1586550977.539,92.773,26.367,35.156,49.316,104.492
1586550977.543,43.945,25.391,35.156,41.016,97.168
1586550977.547,-18.555,27.344,35.645,14.648,25.879
1586550977.551,19.531,26.367,33.691,25.391,13.672
1586550977.554,84.473,24.902,31.738,54.199,54.688
1586550977.558,63.477,28.809,34.668,47.363,100.586
1586550977.562,-11.230,30.273,35.156,10.742,87.891
1586550977.566,0.000,27.832,31.250,11.719,42.969
1586550977.570,58.594,28.320,32.227,41.992,36.621
1586550977.574,74.219,29.785,33.691,52.246,61.523
1586550977.578,5.859,31.250,31.250,21.973,27.344
1586550977.582,-3.418,31.738,29.785,7.812,-18.066
1586550977.586,56.641,29.785,31.738,31.250,30.762
1586550977.590,93.262,29.785,32.227,53.223,34.668
1586550977.594,16.602,31.250,34.180,27.832,9.277
1586550977.597,-22.949,30.273,35.645,6.348,44.922
1586550977.601,26.855,30.273,36.133,21.484,26.855
1586550977.605,85.449,30.762,33.203,49.316,51.758
1586550977.609,43.945,29.297,32.227,36.133,36.133
1586550977.613,-16.602,29.785,36.133,6.348,-12.695
1586550977.617,10.742,30.762,33.691,11.719,-16.113
1586550977.621,68.848,31.250,32.715,38.086,15.137
1586550977.625,63.965,32.227,35.645,39.551,66.895
1586550977.629,-13.672,31.250,34.180,7.812,14.160
1586550977.633,-0.977,29.297,33.691,8.789,-35.156
1586550977.637,72.754,26.855,33.691,41.016,6.836
1586550977.640,90.820,27.344,33.691,59.570,22.461
1586550977.644,5.859,26.855,36.621,31.250,27.344
1586550977.648,-13.184,29.297,36.621,12.207,30.273
1586550977.652,49.316,32.227,33.691,30.762,28.809
1586550977.656,97.656,29.785,32.715,54.199,34.668
1586550977.660,30.762,30.273,32.227,27.832,43.457
1586550977.664,-22.949,29.785,32.227,5.371,58.105
1586550977.668,22.949,29.785,29.785,23.926,22.949
1586550977.672,87.891,30.273,30.762,49.805,41.992
1586550977.676,53.711,31.738,31.738,39.062,89.355
1586550977.679,-11.230,30.273,29.785,12.695,18.066
1586550977.683,18.555,28.320,30.762,20.508,-16.113
1586550977.687,83.984,31.250,30.273,50.781,50.293
1586550977.691,80.078,30.273,28.320,53.711,64.941
1586550977.695,-8.789,27.832,26.855,14.648,-2.441
1586550977.699,-5.371,29.785,29.785,15.137,19.043
1586550977.703,65.918,31.250,32.715,44.434,83.496
1586550977.707,94.727,29.297,30.273,57.617,39.062
1586550977.711,9.766,30.273,30.273,26.855,-9.277
1586550977.715,-19.043,32.715,30.762,8.789,16.113
1586550977.719,34.668,29.297,32.715,28.809,-9.277
1586550977.722,84.473,29.785,32.227,55.664,22.949
1586550977.726,37.598,32.227,30.762,41.992,56.641
1586550977.730,-20.020,31.250,32.227,12.207,11.719
1586550977.734,15.625,32.227,28.320,17.578,-9.766
1586550977.738,83.008,33.691,29.297,49.316,20.996
1586550977.742,63.477,35.156,34.180,41.504,14.160
1586550977.746,-13.672,32.715,34.180,6.348,-71.777
1586550977.750,3.906,31.250,32.715,12.695,-57.129
1586550977.754,66.895,28.809,32.715,40.527,25.391
1586550977.758,65.918,26.367,35.645,46.875,54.199
1586550977.762,-16.602,28.809,36.133,13.184,19.531
1586550977.765,-19.531,29.785,34.180,4.883,9.277
1586550977.769,43.945,28.809,33.203,28.320,47.852
1586550977.773,82.031,31.250,32.227,44.922,53.223
1586550977.777,12.695,33.203,32.227,21.973,-23.926
1586550977.781,-17.578,32.715,33.691,7.812,-6.836
1586550977.785,38.086,30.273,32.715,33.691,31.738
1586550977.789,86.426,27.832,31.738,62.012,46.387
1586550977.793,41.504,30.273,34.668,48.828,86.914
1586550977.797,-7.812,32.227,33.691,14.160,35.645
1586550977.801,24.902,29.785,31.738,9.766,19.531
1586550977.804,76.172,30.273,31.250,43.945,78.613
1586550977.808,48.828,29.297,30.762,48.340,106.934
1586550977.812,-35.156,25.879,32.715,9.277,59.082
1586550977.816,-16.113,28.320,31.738,10.742,28.809
1586550977.820,62.012,31.738,28.809,49.805,57.129
1586550977.824,82.520,31.738,29.785,62.988,89.355
1586550977.828,-0.977,31.250,33.203,20.020,47.852
1586550977.832,-21.484,25.879,35.156,4.395,38.086
1586550977.836,35.645,21.973,36.133,34.668,39.062
1586550977.840,82.520,24.902,35.156,56.152,-1.953
1586550977.844,19.043,27.344,36.133,24.902,-17.090
1586550977.847,-22.949,27.344,36.133,0.000,25.391
1586550977.851,31.738,29.785,33.203,16.602,53.711
1586550977.855,84.961,29.785,32.227,46.875,44.434
1586550977.859,35.645,28.320,31.250,37.109,49.805
1586550977.863,-28.320,27.832,30.273,0.000,5.371
1586550977.867,8.301,26.367,29.297,11.230,-50.781
1586550977.871,68.848,23.926,28.809,46.387,-14.648
1586550977.875,62.988,25.391,31.250,47.363,35.645
1586550977.879,-8.301,28.809,33.691,18.555,13.184
1586550977.883,-2.441,29.297,33.203,15.137,23.926
1586550977.887,62.012,29.297,30.762,32.715,55.664
1586550977.890,82.520,30.762,31.250,47.852,61.523
1586550977.894,9.277,31.738,32.715,22.461,25.391
1586550977.898,-3.906,31.250,33.203,-0.488,-2.930
1586550977.902,47.363,29.785,33.203,17.578,49.805
1586550977.906,91.309,30.762,33.203,55.176,87.402
1586550977.910,31.250,31.250,33.203,38.574,46.387
1586550977.914,-19.043,30.762,32.227,7.812,30.273
1586550977.918,26.855,29.785,33.203,26.855,24.902
1586550977.922,85.449,29.297,32.227,55.176,17.578
1586550977.926,56.152,32.227,30.762,45.410,13.184
1586550977.929,-15.137,31.250,29.785,12.695,4.883
1586550977.933,6.348,27.832,27.832,13.184,25.391
1586550977.937,75.195,30.273,28.809,44.434,18.555
1586550977.941,75.684,32.227,30.762,53.711,9.277
1586550977.945,-6.348,32.227,29.297,18.066,20.508
1586550977.949,-3.906,30.273,26.855,10.742,34.180
1586550977.953,56.641,29.297,28.809,43.945,8.789
1586550977.957,83.496,29.785,28.809,61.523,26.367
1586550977.961,15.137,31.250,28.320,26.367,63.477
1586550977.965,-16.113,31.250,28.320,0.977,43.945
1586550977.969,35.645,30.273,27.344,21.484,20.020
1586550977.972,84.473,31.738,26.855,51.270,43.945
1586550977.976,25.391,32.715,24.414,32.227,32.715
1586550977.980,-18.555,31.250,26.855,4.883,6.348
1586550977.984,26.855,31.738,28.320,17.578,-3.418
1586550977.988,78.613,32.715,27.344,49.316,55.664
1586550977.992,50.293,30.762,30.273,41.504,83.984
1586550977.996,-22.949,32.715,27.344,2.930,-13.184
1586550978.000,1.953,33.691,25.391,16.602,25.879
1586550978.004,65.430,30.762,29.297,45.410,53.223
1586550978.008,75.684,32.715,27.832,43.945,52.246
1586550978.012,1.465,33.691,25.879,11.230,71.777
1586550978.015,-7.324,33.691,26.855,4.395,53.711
1586550978.019,52.734,33.203,28.320,32.227,37.598
1586550978.023,92.285,32.715,29.297,53.711,55.176
1586550978.027,25.391,32.227,31.738,28.320,50.293
1586550978.031,-15.137,30.762,33.203,10.742,8.789
1586550978.035,31.738,31.250,31.738,24.414,-11.230
1586550978.039,85.938,30.762,28.809,53.711,22.949
1586550978.043,46.387,30.273,30.762,44.922,65.430
1586550978.047,-9.277,31.250,34.180,15.625,38.086
1586550978.051,25.391,30.762,32.715,25.391,-7.324
1586550978.054,80.078,29.785,32.715,55.664,36.621
1586550978.058,69.824,29.297,33.691,57.129,67.871
1586550978.062,2.441,30.762,30.273,17.578,20.020
1586550978.066,4.883,30.762,28.320,14.160,35.645
1586550978.070,61.523,29.785,29.297,52.246,18.555
1586550978.074,82.520,28.809,27.344,63.965,34.180
1586550978.078,6.836,29.297,28.809,26.855,25.879
1586550978.082,-11.230,30.273,30.273,8.789,18.066
1586550978.086,46.875,30.273,30.273,30.762,36.133
1586550978.090,94.727,29.785,31.250,57.129,15.625
1586550978.094,35.156,30.273,30.762,31.250,30.273
1586550978.097,-14.648,27.832,29.785,5.859,6.836
1586550978.101,27.832,25.391,31.738,23.438,30.273
1586550978.105,78.613,27.344,33.203,53.711,56.152
1586550978.109,34.668,27.832,33.691,41.016,42.969
1586550978.113,-23.926,26.367,30.762,7.812,31.738
1586550978.117,11.230,26.367,29.297,16.602,21.973
1586550978.121,69.336,26.855,31.250,44.434,57.129
1586550978.125,59.082,27.832,29.785,43.945,26.367
1586550978.129,-16.113,28.320,30.762,13.184,52.734
1586550978.133,-11.719,27.344,32.715,7.324,109.375
1586550978.137,52.246,27.344,30.762,34.180,33.203
1586550978.140,81.543,27.832,31.250,51.758,9.766
1586550978.144,7.324,25.879,32.715,23.438,16.602
1586550978.148,-13.672,25.879,31.738,9.766,-5.371
1586550978.152,46.875,28.320,32.227,27.832,39.062
1586550978.156,89.844,27.344,30.762,45.898,65.430
1586550978.160,28.809,26.367,29.297,25.391,61.035
1586550978.164,-19.043,27.344,29.297,7.812,29.785
1586550978.168,19.043,27.832,31.250,24.414,-6.348
1586550978.172,82.520,27.832,32.227,56.152,50.781
1586550978.176,58.594,32.715,33.203,52.734,19.531
1586550978.179,-20.508,31.738,34.180,11.230,3.906
1586550978.183,-0.977,26.367,32.715,7.812,22.461
1586550978.187,63.965,27.832,31.738,37.598,-22.949
1586550978.191,70.801,26.855,30.762,43.945,-21.484
1586550978.195,-13.672,23.926,30.762,11.719,45.410
1586550978.199,-11.230,23.926,28.320,11.230,62.500
1586550978.203,53.223,23.926,27.344,40.039,28.809
1586550978.207,77.637,24.902,28.809,56.641,17.578
1586550978.211,12.207,25.879,27.344,27.832,1.953
1586550978.215,-21.484,28.809,28.320,6.836,14.648
1586550978.219,27.344,30.273,28.809,27.344,78.613
1586550978.222,81.543,28.809,24.414,50.293,83.496
1586550978.226,29.297,29.297,23.926,29.785,-2.930
1586550978.230,-26.855,27.344,28.809,0.488,-30.273
1586550978.234,16.113,28.809,29.785,12.207,-29.297
1586550978.238,77.148,31.738,30.273,46.875,22.461
1586550978.242,50.293,27.344,32.227,50.781,47.852
1586550978.246,-25.391,26.855,31.738,18.555,-12.207
1586550978.250,-4.883,27.344,30.762,14.160,-73.730
1586550978.254,65.430,25.879,28.320,50.781,-41.504
1586550978.258,80.078,29.297,27.344,69.824,-1.465
1586550978.262,7.324,31.250,29.297,24.414,43.945
1586550978.265,-0.977,34.668,30.762,0.488,29.785
1586550978.269,49.316,34.668,26.855,17.090,21.973
1586550978.273,90.332,30.762,26.367,42.969,65.430
1586550978.277,24.414,29.297,29.297,21.973,22.461
1586550978.281,-19.531,28.809,29.785,0.488,-16.113
1586550978.285,27.832,28.809,28.809,22.949,22.949
1586550978.289,85.449,27.344,26.855,46.875,48.828
1586550978.293,46.387,28.320,25.879,37.109,-2.441
1586550978.297,-20.020,29.785,27.832,8.301,-16.113
1586550978.301,10.742,30.273,28.809,11.719,18.066
1586550978.304,79.102,30.273,26.367,46.387,16.113
1586550978.308,69.336,28.320,25.879,52.246,38.574
1586550978.312,-8.301,24.414,29.297,21.484,33.691
1586550978.316,3.418,22.461,29.297,22.461,26.367
1586550978.320,65.430,26.367,28.809,42.480,-5.859
1586550978.324,79.590,33.203,30.273,46.875,-20.020
1586550978.328,-3.418,34.668,29.785,18.555,32.227
1586550978.332,-24.414,32.227,29.785,2.930,17.578
1586550978.336,34.180,29.785,28.809,21.973,8.789
1586550978.340,82.520,29.297,26.855,49.805,91.797
1586550978.344,26.367,31.250,25.879,29.785,139.648
1586550978.347,-19.043,33.203,23.926,5.371,49.316
1586550978.351,29.297,31.738,23.926,25.879,9.766
1586550978.355,90.820,29.785,26.855,58.594,105.957
1586550978.359,50.781,28.809,29.297,49.316,83.008
1586550978.363,-10.742,30.273,30.273,18.066,25.391
1586550978.367,23.438,32.715,30.762,27.832,27.832
1586550978.371,81.543,33.203,29.785,59.082,75.195
1586550978.375,81.543,29.297,32.227,62.012,62.500
1586550978.379,5.371,29.297,33.203,21.484,20.996
1586550978.383,3.906,31.250,29.297,12.207,18.066
1586550978.387,65.918,29.297,30.273,41.016,14.648
1586550978.390,90.820,28.809,31.250,57.129,17.578
1586550978.394,13.672,29.785,28.809,21.484,-30.762
1586550978.398,-9.766,27.344,29.297,8.301,-60.059
1586550978.402,43.945,26.367,29.297,31.738,-21.484
1586550978.406,92.285,27.832,26.367,53.223,23.926
1586550978.410,38.086,30.273,28.320,37.109,21.973
1586550978.414,-10.742,30.762,33.203,12.207,-19.043
1586550978.418,28.809,31.250,31.738,22.949,24.902
1586550978.422,88.867,30.762,28.809,50.781,131.836
1586550978.426,64.453,31.738,29.785,44.434,72.754
1586550978.429,-6.836,33.691,33.203,7.324,-5.371
1586550978.433,12.207,29.785,33.691,5.371,62.988
1586550978.437,65.918,28.809,32.715,33.203,89.844
1586550978.441,76.172,30.762,33.691,43.457,50.781
1586550978.445,-4.883,29.297,31.738,15.137,31.738
1586550978.449,-22.949,28.809,32.715,7.812,26.855
1586550978.453,43.457,29.297,32.715,34.180,31.738
1586550978.457,85.938,30.273,33.691,51.758,10.254
1586550978.461,5.859,29.785,30.762,24.414,-16.113
1586550978.465,-29.785,26.855,27.832,10.254,0.488
1586550978.469,31.738,26.855,31.250,27.832,-1.953
1586550978.472,85.938,30.762,32.227,57.129,33.691
1586550978.476,36.621,29.297,34.668,43.457,30.762
1586550978.480,-21.973,27.832,33.203,8.789,-14.160
1586550978.484,14.648,29.785,30.762,17.578,-7.324
1586550978.488,73.730,28.320,32.715,48.828,-0.977
1586550978.492,55.664,29.297,30.762,47.852,52.246
1586550978.496,-15.625,29.785,31.738,11.719,60.059
1586550978.500,-5.371,28.809,34.180,9.277,24.414
1586550978.504,59.570,28.809,32.227,38.574,47.852
1586550978.508,77.148,28.320,30.762,46.875,107.910
1586550978.512,0.000,28.320,28.809,15.625,46.387
1586550978.515,-14.648,28.320,26.855,4.883,-33.203
1586550978.519,41.016,28.809,24.414,23.926,-16.602
1586550978.523,86.426,30.762,24.902,48.828,32.227
1586550978.527,18.066,33.203,24.902,26.855,57.129
1586550978.531,-25.879,31.738,24.902,8.301,46.387
1586550978.535,28.320,30.273,25.391,26.367,34.668
1586550978.539,86.914,29.297,27.832,53.223,65.430
1586550978.543,47.363,31.250,30.762,38.574,46.387
1586550978.547,-19.531,33.691,31.738,6.836,-34.668
1586550978.551,8.789,32.715,31.738,19.531,-16.602
1586550978.554,68.359,32.715,30.762,41.992,-16.113
1586550978.558,60.547,34.180,32.715,38.574,28.320
1586550978.562,-9.766,35.645,34.668,9.766,47.852
1586550978.566,-2.441,36.133,31.250,3.906,19.043
1586550978.570,57.129,31.738,29.785,30.762,50.293
1586550978.574,83.984,30.762,30.273,54.688,105.469
1586550978.578,6.836,32.227,30.762,23.926,35.156
1586550978.582,-18.066,31.250,31.250,5.371,16.602
1586550978.586,43.945,30.273,30.273,33.203,4.883
1586550978.590,93.262,33.203,28.320,65.430,50.781
1586550978.594,31.738,31.250,28.809,41.016,76.660
1586550978.597,-15.137,29.297,29.297,10.254,45.410
1586550978.601,32.715,32.227,27.344,17.090,13.672
1586550978.605,87.891,31.738,24.902,44.922,19.043
1586550978.609,50.293,30.273,24.902,39.551,71.289
1586550978.613,-20.508,28.809,25.879,0.488,11.719
1586550978.617,3.906,29.785,23.926,2.441,31.250
1586550978.621,67.383,31.250,22.949,32.227,39.062
1586550978.625,71.289,31.738,25.879,37.598,51.270
1586550978.629,-8.789,30.273,29.297,2.930,11.230
1586550978.633,-21.484,27.344,28.320,-3.906,1.465
1586550978.637,41.504,28.809,26.855,25.391,61.523
1586550978.640,72.754,24.902,29.297,48.340,38.086
1586550978.644,-3.418,23.438,32.227,18.555,-7.812
1586550978.648,-27.832,26.367,33.203,-2.930,-2.441
1586550978.652,29.785,24.902,31.250,18.066,7.812
1586550978.656,80.078,28.320,30.273,48.340,35.645
1586550978.660,34.668,33.691,31.738,36.621,-8.301
1586550978.664,-27.344,31.250,30.273,5.371,-49.805
1586550978.668,6.836,26.855,29.785,17.090,-15.625
1586550978.672,75.684,28.320,30.273,51.758,41.992
1586550978.676,55.176,28.809,28.320,42.480,49.316
1586550978.679,-16.602,28.809,28.809,5.371,0.488
1586550978.683,1.953,27.832,29.785,10.742,0.488
1586550978.687,68.848,26.367,27.344,40.039,66.895
1586550978.691,82.520,29.785,26.855,54.199,57.617
1586550978.695,2.930,31.250,30.762,22.949,15.137
1586550978.699,-0.977,30.273,32.715,9.277,-9.277
1586550978.703,60.059,31.738,31.250,36.133,13.184
1586550978.707,92.285,30.273,31.250,53.711,30.273
1586550978.711,24.902,28.809,30.762,26.367,24.414
1586550978.715,-14.648,27.832,29.785,3.906,31.738
1586550978.719,37.598,27.832,29.297,22.461,67.871
1586550978.722,96.680,29.297,28.809,54.199,80.078
1586550978.726,48.340,29.297,29.785,41.016,17.578
1586550978.730,-16.602,30.273,29.785,8.789,-17.090
1586550978.734,16.602,31.250,28.320,15.137,-33.691
1586550978.738,80.566,29.785,27.832,44.434,-4.395
1586550978.742,67.383,30.273,29.297,43.945,62.988
1586550978.746,-10.742,32.227,29.297,8.789,63.965
1586550978.750,3.418,31.250,27.344,4.395,-46.387
1586550978.754,64.453,27.832,26.855,27.832,-26.367
1586550978.758,78.125,26.367,27.832,46.387,43.457
1586550978.762,3.418,27.344,30.273,23.438,-15.625
1586550978.765,-19.043,26.855,29.297,7.812,8.789
1586550978.769,43.945,24.902,29.785,21.973,11.719
1586550978.773,89.355,24.902,32.715,46.875,103.027
1586550978.777,20.996,25.879,33.691,33.203,80.566
1586550978.781,-24.414,24.902,32.715,10.742,36.133
1586550978.785,20.508,24.902,33.203,25.391,101.562
1586550978.789,84.961,26.367,34.180,55.664,55.176
1586550978.793,47.852,27.344,32.715,48.828,80.078
1586550978.797,-25.391,27.832,31.738,13.184,71.289
1586550978.801,9.766,28.809,31.250,17.090,54.688
1586550978.804,81.055,26.855,30.273,48.828,3.418
1586550978.808,75.195,28.320,31.250,51.758,0.977
1586550978.812,-5.371,30.762,33.203,13.672,28.809
1586550978.816,-1.465,28.320,33.691,3.906,8.301
1586550978.820,63.965,29.297,30.762,32.715,23.926
1586550978.824,87.891,29.297,28.320,50.781,36.133
1586550978.828,9.766,30.273,30.273,24.414,-32.715
1586550978.832,-18.555,30.273,29.785,11.719,20.020
1586550978.836,41.016,28.320,28.809,26.855,46.387
1586550978.840,90.332,28.320,31.250,47.852,31.738
1586550978.844,23.926,29.297,33.203,22.461,43.945
1586550978.847,-25.879,30.273,32.715,-6.348,18.066
1586550978.851,23.438,31.250,31.250,8.789,36.133
1586550978.855,81.055,30.762,28.320,38.574,17.090
1586550978.859,51.270,28.809,28.320,35.156,-25.391
1586550978.863,-23.926,27.344,32.715,7.324,24.414
1586550978.867,-5.371,23.926,32.715,12.695,68.848
1586550978.871,59.570,26.367,30.273,49.805,80.566
1586550978.875,62.500,28.809,33.203,59.082,41.016
1586550978.879,-16.602,28.809,37.109,14.160,-14.160
1586550978.883,-10.254,31.738,36.621,3.906,-1.953
1586550978.887,54.688,32.227,34.180,36.133,61.035
1586550978.890,89.355,31.250,33.203,57.129,53.711
1586550978.894,20.996,29.297,32.715,32.227,7.812
1586550978.898,-11.230,27.344,33.203,10.742,67.383
1586550978.902,49.316,28.809,29.785,31.250,70.312
1586550978.906,100.586,29.297,30.762,61.523,51.758
1586550978.910,42.480,28.809,34.180,44.434,43.945
1586550978.914,-20.508,28.320,32.715,13.184,-1.953
1586550978.918,19.043,25.879,30.762,18.555,-11.230
1586550978.922,83.008,26.855,32.715,41.504,4.883
1586550978.926,59.570,27.344,32.227,41.016,-15.625
1586550978.929,-20.020,27.344,30.762,8.301,-46.387
1586550978.933,-5.371,26.855,31.738,9.766,-53.711
1586550978.937,65.918,30.273,31.250,37.109,34.668
1586550978.941,83.008,31.250,29.785,48.340,66.895
1586550978.945,1.953,31.738,31.250,19.531,48.828
1586550978.949,-6.348,35.156,28.809,7.324,45.410
1586550978.953,54.199,35.156,27.832,28.320,79.590
1586550978.957,89.844,34.668,32.715,50.293,72.754
1586550978.961,17.090,33.203,30.762,32.227,36.133
1586550978.965,-23.926,31.250,28.320,3.418,26.367
1586550978.969,29.297,32.227,32.227,16.113,-17.090
1586550978.972,90.820,31.250,35.156,54.199,26.855
1586550978.976,52.246,31.738,35.645,43.457,7.324
1586550978.980,-14.648,33.203,37.598,11.230,-43.457
1586550978.984,21.973,32.227,37.109,17.090,-34.180
1586550978.988,92.285,32.227,34.180,46.875,-23.438
1586550978.992,81.543,29.785,34.668,52.246,10.742
1586550978.996,0.977,29.785,37.109,21.484,23.926
1586550979.000,7.812,31.250,34.668,21.973,-31.250
1586550979.004,67.383,28.809,33.203,47.363,-50.293
1586550979.008,86.426,26.855,34.180,58.594,63.965
1586550979.012,13.672,27.832,33.203,28.320,37.598
1586550979.015,-11.719,29.785,30.762,3.418,4.395
1586550979.019,47.363,31.250,31.250,21.973,26.367
1586550979.023,96.191,30.762,33.691,50.293,58.594
1586550979.027,30.273,31.250,33.203,30.762,66.895
1586550979.031,-18.066,31.250,30.273,5.859,24.902
1586550979.035,32.227,28.320,29.785,23.438,10.254
1586550979.039,87.891,27.344,30.273,52.246,89.844
1586550979.043,47.852,27.832,30.762,36.621,77.148
1586550979.047,-22.461,28.809,30.762,3.418,5.859
1586550979.051,8.789,29.785,29.785,13.184,5.371
1586550979.054,69.336,31.250,25.391,37.109,51.758
1586550979.058,64.941,37.109,21.973,35.156,54.199
1586550979.062,-9.766,36.621,25.391,2.930,22.949
1586550979.066,-10.742,33.691,26.855,-1.465,16.602
1586550979.070,57.129,35.156,27.832,25.879,27.832
1586550979.074,83.984,35.156,28.320,41.504,62.500
1586550979.078,10.254,33.203,26.367,12.695,15.625
1586550979.082,-20.020,32.715,24.902,-8.789,32.227
1586550979.086,23.438,30.762,28.320,13.184,59.570
1586550979.090,73.242,27.344,30.273,48.828,129.395
1586550979.094,22.461,27.832,29.785,34.668,128.418
1586550979.097,-34.180,29.297,31.250,8.301,28.320
1586550979.101,7.812,29.785,31.738,23.926,13.672
1586550979.105,78.613,30.762,31.738,52.246,25.391
1586550979.109,62.012,33.691,31.738,46.387,31.738
1586550979.113,-8.301,33.691,31.250,14.160,0.977
1586550979.117,15.137,34.668,32.715,18.555,50.293
1586550979.121,87.402,37.109,34.180,55.176,93.750
1586550979.125,85.449,34.180,33.203,58.594,37.598
1586550979.129,-8.301,32.227,31.738,15.625,-31.738
1586550979.133,-20.020,29.297,28.809,7.324,-19.043
1586550979.137,47.852,27.832,26.367,28.809,0.977
1586550979.140,90.332,31.250,27.344,46.387,-5.371
1586550979.144,15.137,33.691,31.738,27.832,41.504
1586550979.148,-20.508,29.785,31.250,4.395,54.199
1586550979.152,34.180,27.832,29.785,15.625,-7.324
1586550979.156,88.867,28.809,31.250,45.410,8.301
1586550979.160,43.945,28.809,33.691,39.551,49.316
1586550979.164,-19.531,27.832,33.203,11.719,-7.324
1586550979.168,15.137,29.297,28.320,14.648,-3.906
1586550979.172,74.707,30.762,30.273,42.969,55.176
1586550979.176,61.035,28.320,36.133,46.387,42.969
1586550979.179,-10.254,30.273,33.203,13.184,19.531
1586550979.183,0.977,30.273,27.832,9.277,29.785
1586550979.187,68.848,30.762,30.762,41.016,44.922
1586550979.191,76.660,33.203,32.715,52.246,76.172
1586550979.195,-9.277,30.762,33.691,21.484,37.109
1586550979.199,-17.090,29.297,33.691,5.859,30.762
1586550979.203,41.992,32.227,29.297,27.832,48.340
1586550979.207,82.031,33.203,28.809,50.293,39.551
1586550979.211,19.531,34.180,30.762,26.855,47.363
1586550979.215,-21.484,35.156,28.809,6.348,22.949
1586550979.219,20.996,33.691,27.344,17.090,5.371
1586550979.222,82.520,31.250,27.832,48.828,3.906
1586550979.226,56.152,31.738,29.785,47.852,15.625
1586550979.230,-10.254,34.180,30.762,12.695,15.137
1586550979.234,17.578,31.738,30.762,13.672,13.672
1586550979.238,78.125,29.297,28.809,46.875,-5.859
1586550979.242,65.918,31.738,27.832,51.758,-4.395
1586550979.246,-12.207,29.297,30.762,19.531,-5.371
1586550979.250,-2.441,28.809,31.738,15.625,31.738
1586550979.254,62.012,29.297,32.715,42.969,60.059
1586550979.258,79.590,27.344,33.691,59.082,39.551
1586550979.262,6.836,27.344,35.645,29.785,29.297
1586550979.265,-16.113,26.367,35.156,11.719,-10.742
1586550979.269,31.738,25.879,30.762,26.367,17.578
1586550979.273,83.496,30.273,30.273,49.316,53.711
1586550979.277,30.273,32.227,30.762,30.273,14.648
1586550979.281,-20.020,31.250,30.273,3.906,26.855
1586550979.285,25.879,31.738,29.785,21.484,77.148
1586550979.289,87.402,33.691,27.832,52.246,83.496
1586550979.293,53.711,29.297,30.762,48.828,6.348
1586550979.297,-21.973,25.879,31.738,20.020,-27.832
1586550979.301,-1.465,27.344,32.715,19.531,44.434
1586550979.304,66.406,26.855,33.691,45.410,64.453
1586550979.308,70.801,26.855,31.250,42.480,112.305
1586550979.312,-9.277,29.785,30.273,1.953,53.711
1586550979.316,-7.324,28.320,30.762,0.977,-0.488
1586550979.320,57.129,25.391,30.762,31.738,37.109
1586550979.324,85.938,24.414,27.832,53.223,40.039
1586550979.328,10.742,25.391,25.879,23.926,68.848
1586550979.332,-20.508,26.855,26.855,0.977,85.938
1586550979.336,38.574,24.414,28.320,19.531,6.348
1586550979.340,92.285,24.414,30.762,52.734,12.207
1586550979.344,40.039,27.344,31.250,43.457,0.488
1586550979.347,-18.555,27.344,30.762,9.277,-22.461
1586550979.351,18.555,28.320,29.297,15.625,19.043
1586550979.355,80.566,27.832,27.832,46.875,16.113
1586550979.359,61.035,29.297,28.320,41.504,-3.906
1586550979.363,-15.625,30.273,28.320,6.836,11.719
1586550979.367,-1.953,28.320,29.297,9.277,48.340
1586550979.371,67.871,29.297,30.273,38.086,41.504
1586550979.375,80.078,31.250,31.250,52.734,28.320
1586550979.379,-0.488,33.203,30.273,23.926,40.039
1586550979.383,-11.230,34.180,28.809,12.695,41.504
1586550979.387,44.434,32.715,29.297,29.297,38.086
1586550979.390,78.125,30.273,28.809,41.992,69.824
1586550979.394,11.230,30.273,29.297,17.090,41.504
1586550979.398,-26.855,34.180,32.227,-1.953,8.789
1586550979.402,20.996,34.180,32.227,20.996,25.391
1586550979.406,78.613,32.227,31.250,50.293,38.574
1586550979.410,36.621,31.738,32.227,41.504,84.473
1586550979.414,-22.461,30.273,31.250,12.695,32.715
1586550979.418,20.508,32.227,28.809,13.184,-13.184
1586550979.422,85.449,32.715,29.297,47.852,50.293
1586550979.426,71.289,32.715,30.273,53.711,60.059
1586550979.429,-3.418,32.715,26.855,19.531,76.172
1586550979.433,2.441,32.715,26.855,17.578,28.320
1586550979.437,66.406,33.691,28.809,45.410,46.387
1586550979.441,83.496,32.715,26.855,54.199,56.152
1586550979.445,3.418,32.715,27.344,19.531,16.113
1586550979.449,-17.578,29.785,30.762,4.395,46.387
1586550979.453,39.062,26.855,32.715,28.809,44.922
1586550979.457,84.473,27.832,34.668,54.199,61.035
1586550979.461,17.090,27.344,38.086,34.668,26.367
1586550979.465,-20.996,27.344,39.062,10.742,-49.316
1586550979.469,34.180,30.273,38.086,26.367,-0.977
1586550979.472,89.355,29.297,35.156,54.688,62.988
1586550979.476,56.152,27.832,34.180,49.805,53.223
1586550979.480,-8.789,28.320,33.691,16.602,31.250
1586550979.484,16.113,28.320,30.273,9.277,-11.230
1586550979.488,72.266,27.344,30.273,37.598,23.438
1586550979.492,61.523,25.879,29.785,39.062,28.320
1586550979.496,-16.113,27.344,31.250,0.488,15.625
1586550979.500,-18.555,25.391,34.180,-1.465,6.348
1586550979.504,39.551,24.414,32.715,23.926,34.180
1586550979.508,66.895,27.344,30.762,38.574,30.762
1586550979.512,-9.277,26.367,29.297,11.719,-45.898
1586550979.515,-31.250,24.902,31.738,-0.977,38.574
1586550979.519,33.691,25.391,33.203,31.250,74.219
1586550979.523,83.984,27.344,31.250,56.641,-2.441
1586550979.527,17.578,32.227,31.738,21.484,19.043
1586550979.531,-33.691,35.156,31.250,-9.766,82.520
1586550979.535,10.254,32.227,32.715,9.766,101.562
1586550979.539,68.359,29.297,34.180,36.621,52.734
1586550979.543,50.293,29.785,30.762,35.156,16.113
1586550979.547,-10.254,32.227,30.762,7.812,12.207
1586550979.551,12.695,32.227,30.762,12.695,-3.418
1586550979.554,72.266,30.273,27.344,49.316,-33.203
1586550979.558,78.613,31.738,26.855,59.570,12.207
1586550979.562,3.418,30.273,28.320,26.367,-22.461
1586550979.566,-1.465,27.832,30.762,16.602,-51.270
1586550979.570,57.129,26.855,29.785,39.062,0.488
1586550979.574,92.773,25.391,32.227,62.012,27.344
1586550979.578,22.949,25.391,35.156,30.762,8.301
1586550979.582,-8.301,27.832,33.203,4.395,5.371
1586550979.586,45.410,30.273,31.738,26.367,29.785
1586550979.590,95.215,30.762,30.762,54.199,80.078
1586550979.594,44.922,30.762,28.809,36.621,70.312
1586550979.597,-16.113,29.297,26.367,11.230,-6.348
1586550979.601,21.484,28.809,27.344,19.043,-24.414
1586550979.605,84.961,32.227,28.809,41.992,58.105
1586550979.609,73.242,33.203,29.297,41.504,89.355
1586550979.613,-2.441,32.227,30.762,7.324,30.273
1586550979.617,6.836,32.715,29.785,9.766,9.277
1586550979.621,67.871,30.273,31.738,39.062,28.320
1586550979.625,79.590,30.762,30.762,50.293,39.551
1586550979.629,-2.930,33.203,28.809,22.461,-3.418
1586550979.633,-17.578,33.691,28.809,9.277,-8.789
1586550979.637,52.246,35.645,29.297,27.832,42.480
1586550979.640,92.773,34.180,28.809,50.293,9.766
1586550979.644,17.090,30.762,25.879,27.344,-35.156
1586550979.648,-29.785,31.250,26.367,7.812,6.836
1586550979.652,19.531,30.762,28.320,26.855,56.641
1586550979.656,73.730,29.297,29.297,58.105,44.434
1586550979.660,33.203,28.320,30.273,42.969,24.902
1586550979.664,-24.902,27.832,28.809,4.395,8.789
1586550979.668,4.883,30.273,26.855,15.625,-22.461
1586550979.672,69.824,30.273,27.344,46.387,19.531
1586550979.676,68.359,31.250,30.273,49.316,88.379
1586550979.679,-16.113,32.227,29.785,10.254,61.035
1586550979.683,-11.230,28.809,30.273,-0.977,34.180
1586550979.687,56.641,29.297,33.203,27.832,37.109
1586550979.691,74.219,29.297,34.180,46.387,51.270
1586550979.695,-4.395,27.344,34.668,16.113,51.758
1586550979.699,-22.461,28.320,33.691,-6.348,50.293
1586550979.703,35.645,28.320,34.180,16.602,20.020
1586550979.707,85.449,29.297,34.180,50.293,-2.930
1586550979.711,27.344,27.832,35.156,30.762,29.297
1586550979.715,-17.578,27.344,33.203,4.883,86.914
1586550979.719,29.785,29.785,32.715,19.531,60.059
1586550979.722,83.496,28.320,37.598,51.758,0.488
1586550979.726,43.457,29.297,35.645,43.457,14.648
1586550979.730,-23.926,31.250,32.715,11.230,17.090
1586550979.734,8.301,29.297,33.203,16.113,-25.879
1586550979.738,71.289,30.273,28.809,38.574,9.277
1586550979.742,69.824,32.227,28.320,46.875,-31.738
1586550979.746,-6.348,30.273,28.320,10.742,-74.707
1586550979.750,-3.906,28.809,27.832,-2.441,38.086
1586550979.754,62.012,31.738,27.832,30.273,79.102
1586550979.758,85.449,33.203,25.879,51.270,43.457
1586550979.762,6.348,30.762,26.855,20.996,29.297
1586550979.765,-22.461,31.738,26.367,1.953,46.875
1586550979.769,34.180,34.180,27.344,19.531,81.543
1586550979.773,89.355,35.156,30.273,49.805,79.590
1586550979.777,37.598,36.133,31.738,36.133,38.574
1586550979.781,-20.508,34.668,30.762,2.930,-14.648
1586550979.785,23.926,30.273,29.785,14.160,5.859
1586550979.789,88.867,32.715,28.809,41.504,31.250
1586550979.793,61.523,31.738,30.273,35.156,7.812
1586550979.797,-13.672,26.855,30.762,4.395,5.371
1586550979.801,6.348,28.809,29.785,7.812,-2.930
1586550979.804,69.336,30.762,28.809,39.062,56.152
1586550979.808,78.613,29.785,27.344,44.922,74.707
1586550979.812,0.000,29.785,29.297,13.672,15.625
1586550979.816,-6.836,32.715,29.297,5.371,11.230
1586550979.820,58.594,32.715,28.320,28.320,5.859
1586550979.824,94.238,29.785,32.715,51.270,36.133
1586550979.828,25.879,29.297,33.203,30.762,22.461
1586550979.832,-11.719,29.785,26.367,12.207,34.668
1586550979.836,30.762,30.762,26.855,28.809,72.754
1586550979.840,84.961,31.250,31.250,52.246,36.621
1586550979.844,43.945,28.809,33.203,34.180,66.406
1586550979.847,-15.137,27.832,35.156,7.324,49.805
1586550979.851,23.438,27.832,33.691,16.602,-16.113
1586550979.855,84.473,27.344,31.250,46.387,14.648
1586550979.859,68.848,26.855,33.691,53.711,22.949
1586550979.863,-8.789,25.391,33.691,18.555,19.531
1586550979.867,3.906,27.344,33.203,16.113,16.113
1586550979.871,71.289,28.320,33.691,50.781,23.438
1586550979.875,91.797,27.832,32.715,63.965,32.227
1586550979.879,16.113,31.250,34.180,26.367,-2.441
1586550979.883,-0.488,32.715,33.691,9.766,59.570
1586550979.887,60.547,32.715,33.203,33.203,26.367
1586550979.890,100.586,33.691,33.691,56.641,-69.824
1586550979.894,34.180,33.203,33.203,33.691,-24.414
1586550979.898,-12.207,28.809,33.691,10.254,13.672
1586550979.902,32.715,27.344,32.715,26.367,17.578
1586550979.906,94.238,30.762,29.297,51.758,54.688
1586550979.910,59.082,32.227,29.785,42.969,65.918
1586550979.914,-8.789,31.738,30.762,11.719,47.363
1586550979.918,14.648,31.250,31.738,23.926,108.398
1586550979.922,78.613,32.227,32.715,58.594,128.418
1586550979.926,76.172,33.691,32.715,59.082,27.832
1586550979.929,-4.883,33.203,33.203,25.391,-20.996
1586550979.933,-0.488,32.715,29.785,20.996,-10.742
1586550979.937,66.895,33.203,28.320,42.969,4.883
1586550979.941,92.285,33.691,30.273,57.129,69.336
1586550979.945,20.020,34.668,31.250,29.297,65.430
1586550979.949,-5.859,32.227,30.762,4.883,24.414
1586550979.953,43.457,31.250,30.762,22.949,37.109
1586550979.957,97.168,35.156,28.320,47.852,120.117
1586550979.961,40.039,32.715,30.762,24.902,55.664
1586550979.965,-21.973,30.762,32.227,-0.488,-10.254
1586550979.969,19.043,33.691,30.273,17.578,41.504
1586550979.972,80.078,31.250,34.180,55.664,25.391
1586550979.976,48.340,32.227,33.691,50.293,42.969
1586550979.980,-25.391,33.691,30.273,13.672,96.191
1586550979.984,-1.953,29.785,31.738,14.160,48.828
1586550979.988,69.336,31.250,33.203,41.504,44.922
1586550979.992,71.289,33.203,33.691,49.805,89.355
1586550979.996,-9.766,31.738,36.133,19.043,61.035
1586550980.000,-8.789,31.250,35.645,12.207,41.016
1586550980.004,57.617,32.227,34.180,30.762,-8.301
1586550980.008,89.355,31.738,34.668,44.434,0.000
1586550980.012,14.648,30.273,35.645,17.578,-43.945
1586550980.015,-15.625,25.879,33.691,1.465,-19.043
1586550980.019,35.645,28.809,32.715,22.949,35.156
1586550980.023,84.473,31.250,34.668,42.969,61.523
1586550980.027,31.250,31.738,34.180,30.273,35.156
1586550980.031,-24.902,30.762,32.227,7.812,-25.879
1586550980.035,17.578,30.273,31.738,20.020,-3.418
1586550980.039,76.172,30.762,31.738,48.828,0.488
1586550980.043,57.617,30.762,33.203,44.434,38.574
1586550980.047,-12.207,31.250,30.762,9.766,42.969
1586550980.051,6.836,32.227,28.809,9.277,21.973
1586550980.054,71.777,30.273,30.273,40.039,75.195
1586550980.058,73.730,26.367,30.762,50.781,95.703
1586550980.062,-6.348,27.344,33.691,19.043,15.137
1586550980.066,-11.230,29.785,29.785,4.883,4.395
1586550980.070,47.852,32.715,28.320,27.832,51.270
1586550980.074,83.496,31.738,29.297,49.316,22.461
1586550980.078,17.090,29.785,28.320,22.949,-0.488
1586550980.082,-23.438,30.273,27.344,0.000,67.383
1586550980.086,28.320,28.320,28.809,21.973,73.730
1586550980.090,84.473,28.320,30.273,52.246,64.941
1586550980.094,34.180,28.320,29.785,35.156,36.133
1586550980.097,-26.855,26.855,30.273,5.371,-8.789
1586550980.101,6.836,26.855,32.227,8.301,55.176
1586550980.105,76.172,29.297,31.250,40.527,96.680
1586550980.109,75.684,30.273,33.203,53.711,56.641
1586550980.113,-7.324,30.762,36.133,14.648,16.113
1586550980.117,-4.883,32.227,35.156,7.812,42.480
1586550980.121,59.570,33.691,33.203,38.574,43.457
1586550980.125,79.102,31.250,35.645,50.293,26.855
1586550980.129,6.836,30.762,35.645,21.973,3.418
1586550980.133,-6.836,34.180,31.250,7.812,6.348
1586550980.137,50.781,32.227,34.180,28.809,16.113
1586550980.140,96.191,30.762,34.180,52.734,37.598
1586550980.144,39.062,35.645,35.645,37.598,10.254
1586550980.148,-9.277,35.156,34.668,16.113,-34.180
1586550980.152,30.762,33.691,32.715,22.949,29.297
1586550980.156,86.914,34.180,33.691,48.828,51.270
1586550980.160,50.293,34.180,31.250,34.668,50.293
1586550980.164,-22.461,32.715,30.273,-0.488,20.020
1586550980.168,0.977,30.273,31.250,4.395,-55.176
1586550980.172,65.918,31.250,32.227,34.668,26.855
1586550980.176,69.824,31.738,32.227,45.410,52.734
1586550980.179,-6.348,30.762,30.762,14.160,-35.156
1586550980.183,-3.418,30.762,30.762,6.348,-28.809
1586550980.187,65.430,32.227,31.250,36.621,-4.395
1586550980.191,95.703,32.715,31.738,59.082,46.387
1586550980.195,10.742,30.762,32.715,27.832,36.133
1586550980.199,-20.996,28.809,31.738,10.742,23.438
1586550980.203,40.527,27.832,30.762,32.227,13.672
1586550980.207,88.867,29.297,30.762,52.734,7.324
1586550980.211,33.203,29.785,31.738,36.133,73.730
1586550980.215,-14.160,31.250,30.273,12.695,17.090
1586550980.219,25.879,33.203,32.715,23.438,21.973
1586550980.222,88.867,36.621,31.738,47.363,42.969
1586550980.226,62.988,36.621,30.762,44.434,1.465
1586550980.230,-13.184,32.227,31.738,11.230,21.484
1586550980.234,10.742,32.227,28.809,11.230,3.418
1586550980.238,68.848,34.668,28.320,43.457,45.410
1586550980.242,72.266,37.109,28.809,48.828,55.664
1586550980.246,-1.465,36.133,30.273,19.043,-25.391
1586550980.250,-5.371,35.645,31.250,11.230,-20.508
1586550980.254,55.176,33.203,31.738,29.297,37.109
1586550980.258,90.332,29.785,29.297,43.945,85.938
1586550980.262,24.414,32.715,29.785,21.484,40.039
1586550980.265,-15.625,30.273,33.691,3.906,-17.578
1586550980.269,28.320,29.297,31.738,25.391,10.254
1586550980.273,79.102,34.180,30.762,53.711,38.086
1586550980.277,29.785,34.180,30.762,36.621,75.195
1586550980.281,-26.367,33.691,33.691,7.324,56.641
1586550980.285,15.137,35.156,31.250,10.742,6.836
1586550980.289,75.195,32.715,26.367,37.598,64.941
1586550980.293,64.453,30.762,28.809,47.363,88.867
1586550980.297,-15.137,30.762,28.809,15.625,-3.906
1586550980.301,-7.812,28.809,30.273,9.277,26.855
1586550980.304,66.895,28.809,34.180,40.039,43.945
1586550980.308,77.637,30.273,35.645,52.734,34.668
1586550980.312,-3.906,28.320,32.715,22.461,71.777
1586550980.316,-11.230,25.391,32.715,11.719,65.430
1586550980.320,47.363,23.926,33.691,30.762,70.312
1586550980.324,89.355,26.367,33.691,61.035,66.895
1586550980.328,25.879,27.344,35.645,43.945,16.113
1586550980.332,-15.137,26.367,37.109,16.113,-1.953
1586550980.336,37.109,28.320,35.156,27.832,66.895
1586550980.340,90.820,27.832,35.645,53.223,75.195
1586550980.344,42.480,26.367,35.645,39.062,-4.883
1586550980.347,-23.926,29.785,33.691,3.906,-5.371
1586550980.351,11.719,29.785,32.227,13.184,7.324
1586550980.355,83.496,31.738,30.273,44.922,25.879
1586550980.359,72.266,30.762,32.715,45.898,24.902
1586550980.363,-7.812,29.297,35.156,10.254,-22.949
1586550980.367,2.441,32.227,31.250,3.418,29.297
1586550980.371,63.965,34.668,28.320,30.273,72.266
1586550980.375,81.055,35.156,28.320,50.293,51.270
1586550980.379,1.953,32.715,30.273,20.508,-4.883
1586550980.383,-20.020,34.180,30.273,0.000,-11.719
1586550980.387,34.668,34.668,30.273,20.020,56.641
1586550980.390,80.078,34.180,31.250,48.828,68.848
1586550980.394,26.367,34.668,32.715,35.645,85.449
1586550980.398,-18.066,33.203,33.691,8.301,31.738
1586550980.402,27.832,34.180,32.715,16.113,-19.043
1586550980.406,90.332,34.668,33.203,48.828,28.809
1586550980.410,53.223,33.203,32.715,39.551,51.758
1586550980.414,-22.949,32.715,29.297,3.906,57.129
1586550980.418,3.418,31.738,28.809,12.207,7.324
1586550980.422,72.754,33.203,27.832,44.922,15.625
1586550980.426,80.566,34.668,28.809,53.711,12.695
1586550980.429,-1.953,32.715,30.762,20.020,-13.672
1586550980.433,-15.137,28.809,31.250,12.695,16.113
1586550980.437,40.527,25.879,29.785,31.738,74.219
1586550980.441,74.219,27.344,27.832,37.598,76.660
1586550980.445,8.789,28.809,29.297,12.207,1.465
1586550980.449,-24.902,27.344,32.227,3.418,-30.273
1586550980.453,20.996,25.391,30.762,27.344,-12.207
1586550980.457,73.730,25.879,28.809,51.758,33.691
1586550980.461,21.973,27.344,30.273,32.715,44.922
1586550980.465,-33.691,28.320,32.227,9.766,1.953
1586550980.469,9.766,29.785,34.668,16.602,-11.230
1586550980.472,70.312,31.250,34.668,42.480,11.230
1586550980.476,47.363,30.273,35.645,43.457,46.875
1586550980.480,-20.508,27.344,35.156,9.766,64.941
1586550980.484,0.000,28.809,34.180,3.906,36.621
1586550980.488,65.918,28.809,32.227,35.156,1.465
1586550980.492,75.684,29.297,33.203,52.734,35.645
1586550980.496,-2.930,29.297,34.180,18.555,55.176
1586550980.500,-7.812,28.809,32.715,10.254,31.250
1586550980.504,51.270,28.809,31.250,42.480,56.641
1586550980.508,85.449,27.344,31.250,70.312,66.895
1586550980.512,19.531,27.344,34.668,42.969,34.180
1586550980.515,-18.555,28.320,34.668,6.836,11.719
1586550980.519,36.621,29.297,32.227,24.902,6.348
1586550980.523,100.586,33.203,26.855,60.059,87.891
1586550980.527,49.316,33.691,31.250,41.992,71.777
1586550980.531,-29.785,28.809,37.598,0.000,-39.551
1586550980.535,0.000,27.344,33.691,1.953,2.441
1586550980.539,66.895,28.809,30.762,35.156,59.570
1586550980.543,54.199,30.762,33.203,37.109,22.949
1586550980.547,-25.391,31.250,37.109,3.418,0.000
1586550980.551,-11.719,30.762,33.691,0.977,52.246
1586550980.554,56.152,31.250,30.762,27.344,69.824
1586550980.558,75.195,30.273,34.180,45.410,28.320
1586550980.562,-5.371,29.785,33.203,19.043,-38.574
1586550980.566,-19.043,30.273,32.715,5.371,-14.160
1586550980.570,48.340,32.227,33.691,28.320,43.945
1586550980.574,86.914,31.250,30.762,51.270,62.500
1586550980.578,23.438,30.762,30.273,29.785,44.922
1586550980.582,-15.137,31.250,30.762,3.906,3.906
1586550980.586,30.762,33.203,30.762,21.484,-29.297
1586550980.590,87.402,34.668,29.785,57.129,-42.969
1586550980.594,52.246,34.668,30.762,47.852,-12.207
1586550980.597,-11.719,31.738,31.250,16.602,-27.832
1586550980.601,19.043,30.273,29.297,18.066,-2.441
1586550980.605,84.473,31.738,29.785,42.969,10.742
1586550980.609,80.078,30.273,34.180,46.875,-25.391
1586550980.613,-2.930,29.297,35.645,8.301,43.457
1586550980.617,-2.441,32.715,32.715,2.441,42.969
1586550980.621,60.547,28.809,34.180,32.715,0.488
1586550980.625,83.984,25.879,34.668,49.805,54.199
1586550980.629,10.742,27.832,30.762,20.020,-4.395
1586550980.633,-15.625,28.809,30.273,3.906,3.418
1586550980.637,38.086,26.855,31.250,21.973,65.918
1586550980.640,86.426,25.391,31.738,47.363,45.410
1586550980.644,24.902,26.855,34.180,29.297,50.293
1586550980.648,-33.203,27.344,32.715,7.324,48.828
1586550980.652,15.625,27.832,32.227,22.461,0.000
1586550980.656,83.496,28.809,34.668,46.875,-7.324
1586550980.660,51.270,30.273,35.645,38.086,41.992
1586550980.664,-24.902,32.715,34.668,3.906,52.734
1586550980.668,-6.348,31.250,31.250,6.836,21.973
1586550980.672,59.570,29.297,28.320,36.133,28.809
1586550980.676,73.242,32.715,28.809,47.852,52.734
1586550980.679,2.930,33.691,30.762,14.648,47.363
1586550980.683,-6.836,30.762,31.250,3.418,80.566
1586550980.687,51.270,32.227,29.297,31.738,78.125
1586550980.691,94.238,33.691,31.250,60.059,88.379
1586550980.695,22.461,32.227,37.109,35.156,85.449
1586550980.699,-13.184,31.738,36.621,12.207,46.875
1586550980.703,43.945,31.738,37.598,34.180,20.508
1586550980.707,96.680,32.227,37.598,66.895,55.664
1586550980.711,47.852,34.180,33.691,47.363,96.680
1586550980.715,-8.789,36.133,34.668,17.090,89.844
1586550980.719,29.297,35.645,32.227,26.367,58.594
1586550980.722,87.402,34.668,30.762,54.688,65.430
1586550980.726,66.895,36.133,34.668,55.664,80.078
1586550980.730,-3.906,35.156,35.645,17.578,3.906
1586550980.734,5.371,32.227,33.691,11.719,-10.742
1586550980.738,63.965,32.227,31.738,31.250,45.410
1586550980.742,79.590,30.762,33.691,51.270,38.574
1586550980.746,0.977,29.297,34.668,19.531,-6.348
1586550980.750,-13.184,28.809,31.738,3.418,12.695
1586550980.754,44.922,30.273,29.785,31.738,19.531
1586550980.758,87.402,27.344,30.273,48.340,5.371
1586550980.762,22.949,22.949,29.785,30.762,-5.371
1586550980.765,-20.020,22.461,28.809,2.930,-16.602
1586550980.769,31.738,22.461,31.250,16.602,-12.695
1586550980.773,90.332,24.902,29.297,51.758,30.762
1586550980.777,48.340,27.832,29.297,40.039,18.066
1586550980.781,-12.695,26.855,32.227,9.277,3.418
1586550980.785,19.531,26.367,31.250,17.578,13.672
1586550980.789,78.613,27.344,31.738,44.434,13.184
1586550980.793,63.965,29.297,30.762,42.480,21.484
1586550980.797,-12.207,26.367,30.762,12.207,-42.969
1586550980.801,4.395,26.367,30.762,7.324,-22.949
1586550980.804,65.918,26.367,30.273,30.273,34.668
1586550980.808,77.637,26.855,31.250,51.270,40.039
1586550980.812,-2.930,30.762,28.809,21.973,86.426
1586550980.816,-21.973,28.809,25.879,5.859,76.660
1586550980.820,35.645,26.367,26.367,30.273,11.719
1586550980.824,83.008,26.367,29.785,57.129,45.410
1586550980.828,25.879,26.367,31.738,35.645,66.895
1586550980.832,-21.484,25.879,30.273,5.371,28.809
1586550980.836,17.090,25.391,29.785,18.066,35.156
1586550980.840,77.637,25.879,30.762,49.805,55.176
1586550980.844,50.293,28.320,28.320,42.969,3.906
1586550980.847,-23.438,28.320,27.832,5.859,-2.441
1586550980.851,3.418,27.832,29.785,8.301,71.777
1586550980.855,72.754,30.273,26.855,37.109,84.473
1586550980.859,74.219,29.785,28.320,42.969,65.918
1586550980.863,-6.348,25.879,35.156,20.020,25.391
1586550980.867,-11.719,28.809,32.227,15.137,-17.090
1586550980.871,52.246,33.203,27.832,34.180,2.930
1586550980.875,84.961,34.180,30.273,45.898,45.410
1586550980.879,19.043,36.133,30.762,15.625,25.879
1586550980.883,-3.418,36.133,30.762,0.977,-4.395
1586550980.887,48.828,34.668,30.762,27.832,-22.461
1586550980.890,100.098,32.715,30.273,55.664,28.320
1586550980.894,48.828,33.691,34.180,28.809,23.926
1586550980.898,-7.812,31.738,35.645,2.441,0.977
1586550980.902,24.414,28.320,35.156,19.043,1.953
1586550980.906,81.543,29.785,36.133,45.410,1.953
1586550980.910,59.570,29.785,38.086,47.363,-0.488
1586550980.914,-16.113,29.785,38.086,14.160,11.230
1586550980.918,2.441,30.273,37.598,10.254,38.086
1586550980.922,69.824,29.297,37.109,45.898,53.223
1586550980.926,76.172,31.250,34.180,54.199,77.148
1586550980.929,-2.441,34.180,31.250,18.066,73.730
1586550980.933,-2.930,33.203,31.738,12.695,-2.930
1586550980.937,63.965,30.762,33.203,35.156,-7.812
1586550980.941,96.680,31.738,34.180,55.664,37.598
1586550980.945,23.438,31.250,34.668,32.715,57.129
1586550980.949,-14.648,30.762,33.203,8.789,53.223
1586550980.953,33.691,28.809,32.227,28.320,38.086
1586550980.957,90.820,30.762,30.273,60.059,66.895
1586550980.961,40.527,34.180,33.203,40.039,43.457
1586550980.965,-27.832,34.668,35.156,8.301,-17.090
1586550980.969,10.254,34.180,30.762,22.461,31.250
1586550980.972,78.125,33.203,33.203,52.246,50.293
1586550980.976,60.547,29.785,35.645,45.410,20.508
1586550980.980,-20.020,30.273,32.715,4.395,12.695
1586550980.984,-9.277,32.227,33.203,-0.977,20.508
1586550980.988,54.199,31.250,35.645,29.785,41.992
1586550980.992,73.242,31.250,34.180,43.457,53.223
1586550980.996,-7.324,32.715,30.762,9.277,34.180
1586550981.000,-18.066,33.691,30.762,-0.488,54.688
1586550981.004,49.805,33.203,27.832,20.020,56.641
1586550981.008,94.238,32.227,23.438,43.457,49.316
1586550981.012,21.973,29.297,27.832,29.297,96.680
1586550981.015,-25.391,27.344,30.273,5.371,50.293
1586550981.019,30.273,30.273,30.762,21.973,-29.297
1586550981.023,88.379,33.203,33.203,54.688,-19.531
1586550981.027,51.270,31.250,34.668,45.410,2.441
1586550981.031,-14.648,29.785,34.668,8.301,-6.348
1586550981.035,15.137,27.832,34.180,10.742,2.441
1586550981.039,75.195,25.879,32.227,48.340,33.691
1586550981.043,66.895,26.855,34.180,56.641,55.176
1586550981.047,-11.719,28.320,35.645,20.020,79.590
1586550981.051,-3.418,27.832,34.668,11.719,62.500
1586550981.054,65.430,26.367,34.180,40.527,31.738
1586550981.058,87.402,27.344,35.156,60.059,34.668
1586550981.062,10.742,28.809,36.621,32.715,15.625
1586550981.066,-9.277,30.273,36.621,15.137,-41.992
1586550981.070,46.875,31.250,35.156,29.785,-22.949
1586550981.074,97.168,28.320,31.738,51.758,13.184
1586550981.078,39.062,27.832,29.785,34.668,30.273
1586550981.082,-14.160,32.227,28.320,6.836,-11.230
1586550981.086,27.344,34.180,27.832,17.578,2.441
1586550981.090,77.637,33.691,31.250,44.434,37.598
1586550981.094,44.434,33.203,34.668,40.527,68.359
1586550981.097,-23.438,33.203,35.645,12.695,118.164
1586550981.101,0.488,30.273,35.156,13.672,40.039
1586550981.105,71.289,29.297,34.180,44.922,9.277
1586550981.109,75.684,32.715,33.691,54.688,66.406
1586550981.113,-5.859,31.250,34.180,17.090,32.227
1586550981.117,-0.977,31.250,33.203,10.254,33.691
1586550981.121,63.965,30.762,30.273,39.062,40.039
1586550981.125,89.844,29.785,31.250,57.129,60.547
1586550981.129,19.531,30.273,35.645,28.809,74.707
1586550981.133,-9.766,31.738,35.645,8.789,54.199
1586550981.137,41.016,30.762,34.180,24.414,35.645
1586550981.140,88.867,30.273,32.227,53.223,32.715
1586550981.144,34.180,30.762,35.156,41.504,50.781
1586550981.148,-17.578,29.785,36.133,18.066,38.086
1586550981.152,20.996,29.297,35.156,24.902,-15.137
1586550981.156,84.961,29.297,34.668,50.781,21.484
1586550981.160,62.988,27.344,32.715,51.758,16.113
1586550981.164,-21.973,27.832,32.227,11.719,-33.203
1586550981.168,-0.977,26.855,31.250,5.371,15.625
1586550981.172,70.312,28.809,30.273,36.621,56.641
1586550981.176,76.660,32.715,31.250,52.246,51.758
1586550981.179,-4.883,31.250,33.691,25.391,-4.395
1586550981.183,-17.578,27.832,32.715,9.766,-39.062
1586550981.187,46.387,28.320,31.738,29.785,23.926
1586550981.191,91.309,31.250,32.715,57.129,34.668
1586550981.195,18.066,30.273,33.203,27.832,13.184
1586550981.199,-28.809,29.297,33.203,0.977,14.160
1586550981.203,20.020,30.762,28.809,20.996,15.625
1586550981.207,80.566,29.297,26.855,46.387,87.891
1586550981.211,38.574,27.832,31.250,28.320,91.797
1586550981.215,-30.273,29.297,30.762,-4.395,32.715
1586550981.219,3.906,30.762,29.297,5.859,4.395
1586550981.222,73.730,29.785,31.738,33.691,33.203
1586550981.226,66.406,30.273,32.715,35.645,22.949
1586550981.230,-10.254,31.738,32.715,7.324,-43.945
1586550981.234,-2.441,30.273,31.738,4.883,-23.926
1586550981.238,60.547,29.785,31.250,35.645,9.277
1586550981.242,79.590,29.297,31.250,52.734,71.777
1586550981.246,4.395,31.250,32.227,21.484,95.215
1586550981.250,-14.160,30.762,30.762,9.766,36.621
1586550981.254,51.270,30.762,29.785,33.691,-2.930
1586550981.258,96.191,32.715,33.691,57.617,9.277
1586550981.262,25.879,30.273,33.203,30.273,13.184
1586550981.265,-25.391,27.344,31.738,-1.465,13.672
1586550981.269,20.020,27.344,34.180,19.043,10.742
1586550981.273,78.613,29.785,31.738,47.852,2.441
1586550981.277,42.969,28.809,30.762,31.250,32.715
1586550981.281,-24.902,26.367,33.203,4.883,47.363
1586550981.285,3.906,27.344,31.738,17.090,36.621
1586550981.289,69.824,27.832,32.227,40.527,87.402
1586550981.293,67.871,28.320,28.809,42.969,87.402
1586550981.297,-3.906,33.691,30.273,13.672,83.008
1586550981.301,-4.883,29.297,28.320,5.371,41.016
1586550981.304,48.828,22.461,24.902,24.414,-9.766
1586550981.308,84.961,23.438,32.715,44.922,65.918
1586550981.312,16.113,25.879,35.156,21.484,60.547
1586550981.316,-14.160,28.809,32.715,0.488,10.742
1586550981.320,37.598,31.738,33.691,21.484,5.371
1586550981.324,88.379,32.715,32.715,53.223,41.992
1586550981.328,33.691,30.762,33.203,37.109,77.637
1586550981.332,-19.531,30.762,34.180,6.836,34.180
1586550981.336,23.438,32.715,34.180,18.066,18.555
1586550981.340,90.332,33.203,34.668,49.316,37.109
1586550981.344,68.848,33.691,32.715,42.480,53.711
1586550981.347,-2.441,35.156,32.227,7.812,47.363
1586550981.351,15.625,32.715,30.273,7.812,6.348
1586550981.355,79.590,31.250,29.297,38.574,-12.695
1586550981.359,86.426,33.691,30.273,52.734,21.484
1586550981.363,4.395,35.156,29.785,19.531,16.602
1586550981.367,2.441,32.227,27.832,10.742,41.992
1586550981.371,62.988,32.715,27.832,36.621,81.543
1586550981.375,87.402,35.156,27.832,52.734,83.496
1586550981.379,17.578,34.668,27.832,28.320,65.430
1586550981.383,-21.484,33.203,32.227,8.789,-11.719
1586550981.387,25.879,29.785,34.668,27.832,2.930
1586550981.390,85.938,31.250,31.250,55.176,89.844
1586550981.394,33.691,37.598,27.832,33.203,21.973
1586550981.398,-23.438,39.062,26.855,2.930,-31.250
1586550981.402,17.090,35.156,27.832,12.207,-5.859
1586550981.406,83.008,35.645,28.320,40.527,57.617
1586550981.410,66.406,35.645,27.832,41.992,49.316
1586550981.414,-9.766,35.156,28.809,7.812,-25.391
1586550981.418,10.254,38.574,28.809,9.766,-32.227
1586550981.422,71.289,36.133,28.320,41.504,-9.277
1586550981.426,80.078,32.715,29.297,54.199,-28.320
1586550981.429,7.324,34.180,31.250,21.484,-30.762
1586550981.433,-2.441,36.133,31.738,6.836,52.246
1586550981.437,52.734,35.156,32.227,28.809,41.016
1586550981.441,90.332,34.668,32.227,52.734,47.852
1586550981.445,26.855,35.645,33.203,34.180,68.359
1586550981.449,-17.090,32.227,33.691,10.742,62.012
1586550981.453,26.855,29.297,33.203,24.902,8.301
1586550981.457,88.379,31.250,31.250,52.734,16.602
1586550981.461,50.293,33.203,27.832,41.016,67.871
1586550981.465,-20.020,30.273,29.785,13.184,41.016
1586550981.469,12.207,32.227,30.273,18.555,56.641
1586550981.472,80.566,33.203,28.809,46.387,27.832
1586550981.476,75.684,33.203,31.250,52.734,-26.367
1586550981.480,-7.812,30.273,32.715,19.043,-18.066
1586550981.484,-9.766,27.344,31.738,11.230,-10.742
1586550981.488,52.246,30.273,29.785,37.109,-4.883
1586550981.492,71.289,29.297,31.250,54.199,61.523
1586550981.496,-1.465,29.297,33.203,25.391,-7.812
1586550981.500,-20.020,30.273,34.180,8.301,-35.645
1586550981.504,41.992,29.785,32.227,33.691,38.574
1586550981.508,91.797,31.738,27.832,60.059,48.340
1586550981.512,31.250,33.691,28.809,38.086,60.059
1586550981.515,-16.113,32.715,31.738,14.160,48.828
1586550981.519,24.902,33.691,30.273,25.879,-0.977
1586550981.523,82.520,32.715,31.738,50.293,6.836
1586550981.527,49.316,33.203,32.227,41.016,51.758
1586550981.531,-20.996,32.715,28.809,7.812,9.766
1586550981.535,2.441,30.762,29.297,9.277,25.879
1586550981.539,71.777,31.738,28.809,41.504,40.039
1586550981.543,72.266,28.320,29.297,54.688,70.801
1586550981.547,-12.207,26.855,31.738,16.113,90.820
1586550981.551,-10.254,28.809,28.320,4.395,69.336
1586550981.554,53.711,29.785,25.391,30.762,46.875
1586550981.558,83.496,28.809,32.715,53.223,69.824
1586550981.562,13.184,28.320,34.668,25.879,78.613
1586550981.566,-21.484,29.785,29.297,0.977,40.527
1586550981.570,27.344,29.785,29.785,25.391,-13.184
1586550981.574,76.660,29.297,29.785,50.781,20.508
1586550981.578,27.344,31.738,28.809,30.273,81.543
1586550981.582,-27.832,30.273,28.320,1.465,39.551
1586550981.586,12.695,29.297,29.785,9.277,6.836
1586550981.590,83.496,31.738,31.738,47.852,66.406
1586550981.594,61.523,33.691,33.203,48.340,35.645
1586550981.597,-14.648,32.227,34.180,16.113,-3.418
1586550981.601,8.789,31.738,33.691,18.555,32.715
1586550981.605,72.754,32.715,33.203,46.387,42.480
1586550981.609,83.496,32.715,33.203,57.129,35.156
1586550981.613,1.465,32.715,34.668,23.438,-7.324
1586550981.617,-5.371,33.691,33.691,10.742,-6.836
1586550981.621,58.594,34.180,32.715,36.133,35.645
1586550981.625,94.727,36.621,33.691,59.082,30.762
1586550981.629,27.832,37.598,34.180,33.203,30.273
1586550981.633,-10.742,35.156,33.203,7.812,8.789
1586550981.637,40.527,36.133,31.738,22.461,21.484
1586550981.640,98.633,36.133,31.250,51.270,32.227
1586550981.644,54.199,33.203,33.691,36.133,-7.812
