timestamps,TP9,AF7,AF8,TP10,Right AUX
1586550743.726,-21.973,32.715,25.391,2.930,24.414
1586550743.730,-30.273,33.691,19.043,-8.301,-19.531
1586550743.734,65.430,30.273,18.066,34.180,46.387
1586550743.738,114.258,32.227,26.367,63.477,66.406
1586550743.742,7.324,32.227,27.832,26.855,42.480
1586550743.746,-38.086,31.738,23.926,3.906,-31.738
1586550743.750,37.109,33.203,24.902,24.902,0.977
1586550743.754,120.117,31.250,26.367,58.105,86.426
1586550743.758,48.340,32.715,25.879,39.062,52.734
1586550743.762,-38.086,34.180,23.438,-2.930,22.461
1586550743.765,10.742,37.109,22.949,10.254,0.488
1586550743.769,115.723,36.621,22.461,58.105,60.547
1586550743.773,80.078,33.203,22.461,50.293,54.688
1586550743.777,-32.227,33.691,19.531,3.906,-40.039
1586550743.781,-18.066,32.715,17.090,7.324,1.953
1586550743.785,77.148,26.855,22.461,48.828,12.207
1586550743.789,106.934,31.738,24.902,58.594,11.719
1586550743.793,0.488,36.133,26.855,13.672,-40.039
1586550743.797,-37.109,33.691,26.855,4.883,-27.832
1586550743.801,47.363,32.715,21.973,43.457,34.668
1586550743.804,119.141,26.855,20.996,64.941,38.086
1586550743.808,17.578,28.320,23.438,32.715,43.945
1586550743.812,-55.176,34.668,23.438,7.812,17.090
1586550743.816,20.020,36.621,25.391,24.414,32.227
1586550743.820,119.141,36.133,26.855,63.477,40.527
1586550743.824,49.805,37.109,27.344,39.551,41.992
1586550743.828,-47.852,36.133,26.367,-3.906,45.410
1586550743.832,-6.348,32.715,23.438,12.695,-10.742
1586550743.836,105.469,31.738,21.484,56.641,29.297
1586550743.840,92.773,30.762,23.438,54.688,65.918
1586550743.844,-26.367,30.762,25.391,15.137,9.766
1586550743.847,-18.555,32.227,24.414,9.277,-14.648
1586550743.851,81.543,30.273,23.926,46.387,49.805
1586550743.855,109.375,28.809,21.973,62.500,117.676
1586550743.859,-4.395,30.273,20.996,11.719,85.449
1586550743.863,-42.480,28.809,17.578,-1.465,4.883
1586550743.867,44.434,28.809,18.555,34.180,-7.324
1586550743.871,123.047,30.273,23.926,63.965,43.945
1586550743.875,28.809,28.809,22.461,28.320,34.180
1586550743.879,-47.852,30.762,23.438,-11.230,-20.508
1586550743.883,11.719,32.715,23.926,6.836,8.301
1586550743.887,108.398,29.785,19.531,48.340,68.848
1586550743.890,58.594,29.297,19.043,36.133,32.227
1586550743.894,-46.875,27.832,18.066,-9.277,28.320
1586550743.898,-10.742,23.926,20.508,-2.930,28.809
1586550743.902,93.750,28.809,20.996,40.039,10.254
1586550743.906,80.078,30.273,17.090,48.828,101.562
1586550743.910,-41.016,30.273,15.625,-2.441,79.590
1586550743.914,-47.363,31.738,18.555,-12.695,-6.836
1586550743.918,54.688,31.738,19.043,34.668,44.922
1586550743.922,102.539,27.344,19.531,60.059,32.227
1586550743.926,-5.859,25.879,21.973,19.043,2.930
1586550743.929,-42.969,31.250,22.461,-0.488,32.227
1586550743.933,38.086,31.250,21.973,29.297,11.719
1586550743.937,110.840,28.809,22.949,68.848,39.062
1586550743.941,26.367,29.785,22.461,39.062,78.613
1586550743.945,-52.734,28.320,20.508,-7.324,5.859
1586550743.949,5.859,27.344,17.578,3.418,2.930
1586550743.953,113.281,30.762,19.043,46.387,88.379
1586550743.957,70.312,31.250,21.973,41.504,14.648
1586550743.961,-43.945,27.832,20.996,-3.906,-48.828
1586550743.965,-20.508,28.320,18.066,-0.977,-12.207
1586550743.969,85.938,30.762,16.113,42.480,38.574
1586550743.972,88.867,28.809,20.508,52.246,82.520
1586550743.976,-28.320,27.344,23.926,4.395,7.812
1586550743.980,-38.574,28.320,24.414,-9.277,9.766
1586550743.984,56.641,30.273,22.461,33.203,19.043
1586550743.988,110.352,29.785,21.484,62.500,30.762
1586550743.992,12.207,26.855,21.973,20.996,71.777
1586550743.996,-36.621,26.855,22.949,-5.859,6.836
1586550744.000,25.879,30.273,24.414,22.461,-19.531
1586550744.004,115.234,30.273,22.461,60.059,47.852
1586550744.008,45.410,26.855,21.973,33.691,18.066
1586550744.012,-52.734,27.832,23.926,-3.906,15.625
1586550744.015,-6.348,27.344,26.367,13.184,31.250
1586550744.019,99.609,24.902,25.391,53.711,32.227
1586550744.023,70.801,27.832,20.996,42.480,68.848
1586550744.027,-33.203,28.809,18.555,-0.977,20.020
1586550744.031,-17.090,26.367,20.996,1.953,9.277
1586550744.035,81.055,27.344,19.531,43.457,19.531
1586550744.039,102.539,25.391,19.531,60.547,26.855
1586550744.043,-15.137,28.320,22.461,15.625,33.203
1586550744.047,-31.250,28.320,21.484,-3.418,1.953
1586550744.051,65.918,23.926,19.531,34.180,13.184
1586550744.054,126.953,30.273,21.484,61.523,50.293
1586550744.058,28.320,33.203,24.902,26.367,20.508
1586550744.062,-44.434,31.738,24.902,0.000,-17.578
1586550744.066,17.090,31.250,22.949,21.484,-35.645
1586550744.070,120.117,33.203,20.996,58.594,75.195
1586550744.074,54.199,33.203,22.949,34.180,76.172
1586550744.078,-44.922,31.738,23.926,-7.812,6.836
1586550744.082,0.977,32.715,19.531,-2.930,-19.043
1586550744.086,105.957,33.203,20.996,36.621,-27.832
1586550744.090,90.332,30.273,23.926,46.875,81.543
1586550744.094,-25.391,30.762,22.949,5.859,56.152
1586550744.097,-17.578,30.273,23.438,-3.418,13.672
1586550744.101,91.309,30.762,26.367,40.527,38.574
1586550744.105,118.652,33.691,23.926,63.965,6.836
1586550744.109,-1.465,30.273,21.973,20.996,-19.531
1586550744.113,-34.668,28.320,22.949,1.465,14.648
1586550744.117,46.387,27.832,21.973,26.855,23.926
1586550744.121,114.258,27.344,23.926,64.453,63.477
1586550744.125,17.090,28.320,25.879,37.598,39.062
1586550744.129,-54.199,28.809,26.367,-2.930,-18.066
1586550744.133,11.719,29.297,22.949,11.719,28.320
1586550744.137,114.258,31.250,20.996,54.688,41.504
1586550744.140,58.594,32.715,21.973,44.434,49.805
1586550744.144,-42.480,28.320,21.484,1.953,31.250
1586550744.148,-10.254,24.902,20.996,8.301,-6.348
1586550744.152,92.773,30.762,19.531,49.316,34.668
1586550744.156,100.098,34.180,20.020,59.570,90.332
1586550744.160,-10.742,30.762,23.926,17.090,58.594
1586550744.164,-20.508,31.250,24.902,5.371,12.207
1586550744.168,74.707,28.320,25.391,47.363,12.695
1586550744.172,116.211,23.926,26.367,71.777,84.961
1586550744.176,1.953,28.809,27.832,22.949,38.574
1586550744.179,-41.504,33.203,25.879,0.488,-41.016
1586550744.183,38.086,33.203,22.949,34.180,0.488
1586550744.187,126.465,29.785,24.414,74.707,75.195
1586550744.191,48.340,32.715,25.879,43.945,56.152
1586550744.195,-31.250,33.691,26.367,0.488,-11.719
1586550744.199,21.484,32.227,24.902,20.996,19.043
1586550744.203,111.816,33.691,23.438,61.523,76.660
1586550744.207,62.500,33.203,26.367,46.875,75.195
1586550744.211,-51.758,29.785,27.832,2.441,38.086
1586550744.215,-25.391,29.297,28.320,7.324,1.953
1586550744.219,80.566,31.738,26.855,53.711,5.859
1586550744.222,92.773,32.227,25.879,60.547,58.594
1586550744.226,-21.484,30.273,27.344,10.254,67.871
1586550744.230,-31.250,29.297,27.344,-1.953,24.902
1586550744.234,63.965,31.250,26.855,32.715,17.578
1586550744.238,121.094,34.180,23.926,63.477,48.340
1586550744.242,16.113,33.691,21.484,31.250,35.645
1586550744.246,-46.875,28.320,20.020,0.488,-20.996
1586550744.250,26.367,26.855,20.508,23.926,13.184
1586550744.254,118.652,29.297,20.996,62.988,55.664
1586550744.258,44.922,31.250,24.902,38.086,5.371
1586550744.262,-51.758,31.250,24.902,-0.977,-34.668
1586550744.265,-2.930,29.785,20.996,9.277,-7.812
1586550744.269,104.004,28.809,19.531,46.875,57.129
1586550744.273,72.266,29.297,20.020,43.945,48.828
1586550744.277,-40.527,28.809,20.996,-5.859,-14.648
1586550744.281,-26.367,26.367,21.973,-10.254,0.977
1586550744.285,76.172,31.250,24.414,37.109,57.617
1586550744.289,104.980,35.156,25.879,52.734,44.922
1586550744.293,-14.160,34.668,26.367,10.254,18.555
1586550744.297,-43.457,34.668,28.320,-1.465,36.133
1586550744.301,48.340,34.180,28.320,31.738,54.199
1586550744.304,118.164,34.668,27.344,62.012,28.809
1586550744.308,22.461,37.109,26.367,26.367,-5.859
1586550744.312,-46.875,36.133,26.855,-12.695,-10.254
1586550744.316,23.438,34.180,26.367,13.672,2.441
1586550744.320,120.605,34.180,22.949,58.105,14.160
1586550744.324,59.082,36.621,19.043,38.574,-3.418
1586550744.328,-42.969,37.598,19.531,-1.953,-39.551
1586550744.332,-3.906,33.203,23.926,6.348,-48.340
1586550744.336,107.910,31.250,22.461,50.293,26.855
1586550744.340,89.844,32.227,21.973,47.852,113.770
1586550744.344,-31.738,29.297,25.879,-2.930,47.363
1586550744.347,-23.438,28.809,23.926,-5.859,22.949
1586550744.351,80.566,34.180,24.902,36.621,63.965
1586550744.355,110.840,34.180,26.367,55.176,17.578
1586550744.359,-10.254,27.344,22.461,12.207,-1.465
1586550744.363,-51.270,29.297,21.484,-9.766,32.715
1586550744.367,31.250,29.785,21.973,22.461,55.664
1586550744.371,110.840,27.832,18.555,56.641,90.332
1586550744.375,25.879,31.250,17.578,32.715,60.059
1586550744.379,-57.129,26.367,25.391,0.977,32.227
1586550744.383,-4.883,23.438,28.320,8.301,48.340
1586550744.387,100.586,19.531,26.855,48.340,91.309
1586550744.390,59.570,23.926,25.391,37.109,53.223
1586550744.394,-46.387,35.645,23.926,-11.230,-64.453
1586550744.398,-21.484,33.203,25.391,-3.418,-14.648
1586550744.402,84.473,32.227,22.949,40.527,92.773
1586550744.406,89.355,35.645,22.461,50.781,77.148
1586550744.410,-25.391,33.691,25.391,9.766,30.273
1586550744.414,-31.738,31.738,23.438,-2.441,43.945
1586550744.418,67.383,33.203,25.391,38.574,79.102
1586550744.422,112.793,30.273,26.855,64.453,62.500
1586550744.426,0.488,29.297,25.391,19.043,-0.977
1586550744.429,-45.410,32.227,24.902,-8.789,32.715
1586550744.433,31.738,34.180,22.461,18.555,28.809
1586550744.437,117.676,32.715,18.066,54.199,-6.836
1586550744.441,31.250,30.273,18.555,23.926,20.020
1586550744.445,-62.012,29.297,20.996,-16.113,-33.691
1586550744.449,-1.465,28.809,21.973,4.395,-20.508
1586550744.453,106.934,29.297,24.414,51.758,64.941
1586550744.457,68.848,30.273,27.832,44.434,54.199
1586550744.461,-45.898,30.273,25.879,1.953,10.742
1586550744.465,-12.695,29.785,24.414,4.883,33.691
1586550744.469,98.145,28.809,25.879,45.898,97.168
1586550744.472,105.957,30.762,25.391,55.664,59.570
1586550744.476,-8.301,30.762,25.391,12.695,-3.906
1586550744.480,-31.738,29.785,23.926,0.977,16.113
1586550744.484,46.875,29.297,22.461,35.645,6.836
1586550744.488,100.586,26.367,23.438,60.547,21.484
1586550744.492,-4.395,28.320,23.438,19.043,37.598
1586550744.496,-61.035,30.273,22.949,-7.812,4.883
1586550744.500,19.531,31.738,22.949,23.438,-11.719
1586550744.504,113.281,32.715,23.926,64.941,27.832
1586550744.508,41.504,31.738,22.949,40.039,71.289
1586550744.512,-51.270,32.227,21.484,-1.953,18.555
1586550744.515,-5.371,30.273,22.461,7.812,-44.922
1586550744.519,103.516,29.297,21.973,54.199,-8.789
1586550744.523,81.055,32.227,23.926,52.246,36.133
1586550744.527,-34.668,34.180,23.926,5.859,-6.348
1586550744.531,-21.484,36.133,23.926,0.977,-55.664
1586550744.535,79.590,36.133,23.438,41.504,-11.230
1586550744.539,105.469,37.598,20.508,63.965,67.383
1586550744.543,-12.695,36.621,22.461,18.555,37.109
1586550744.547,-39.551,33.691,22.461,-3.906,-16.113
1586550744.551,52.734,31.250,18.555,24.902,13.672
1586550744.554,121.582,28.809,16.602,57.129,83.984
1586550744.558,25.879,31.738,20.020,28.320,110.352
1586550744.562,-47.852,32.227,24.902,-8.301,67.383
1586550744.566,19.043,31.738,27.344,14.160,18.066
1586550744.570,114.258,34.180,26.855,58.594,38.086
1586550744.574,58.594,34.180,26.367,39.551,37.109
1586550744.578,-34.180,35.156,26.367,-3.906,33.691
1586550744.582,-4.883,32.227,24.902,4.395,73.242
1586550744.586,90.820,33.203,23.926,52.734,80.078
1586550744.590,81.055,35.645,25.391,57.617,97.656
1586550744.594,-38.086,33.691,23.926,7.812,32.227
1586550744.597,-33.203,31.738,24.902,2.441,-9.277
1586550744.601,67.383,30.273,25.879,41.992,45.898
1586550744.605,102.539,32.715,26.367,63.477,47.852
1586550744.609,-2.930,33.203,27.344,22.461,-1.465
1586550744.613,-39.062,32.227,26.855,0.488,-9.766
1586550744.617,43.457,31.250,23.926,32.227,35.156
1586550744.621,118.652,29.785,22.949,65.430,86.426
1586550744.625,34.180,32.227,25.391,29.297,61.523
1586550744.629,-47.852,29.785,26.855,-3.418,-13.672
1586550744.633,5.859,28.809,24.414,18.066,1.465
1586550744.637,108.398,30.762,23.926,57.129,51.270
1586550744.640,60.059,30.273,28.809,37.598,48.340
1586550744.644,-51.270,31.250,26.855,-11.230,-26.367
1586550744.648,-21.484,28.809,23.438,-6.348,-54.199
1586550744.652,90.820,25.879,24.902,42.969,-42.969
1586550744.656,97.656,30.273,28.809,54.688,8.301
1586550744.660,-20.996,32.227,34.180,10.742,44.922
1586550744.664,-36.133,31.250,30.273,4.883,56.641
1586550744.668,64.453,31.250,29.297,40.527,67.871
1586550744.672,119.629,33.691,31.250,62.988,77.637
1586550744.676,2.930,33.691,26.367,27.344,57.129
1586550744.679,-53.223,30.762,25.879,2.930,1.953
1586550744.683,30.762,31.250,26.855,26.855,10.742
1586550744.687,120.605,33.691,26.855,65.918,34.668
1586550744.691,41.016,36.133,29.785,42.969,37.598
1586550744.695,-41.992,36.133,30.273,3.418,36.133
1586550744.699,17.090,36.133,29.297,17.578,32.227
1586550744.703,118.652,36.133,26.855,59.570,35.645
1586550744.707,72.266,35.645,25.391,48.828,19.531
1586550744.711,-38.574,31.738,24.902,6.836,5.371
1586550744.715,-13.672,32.227,25.879,12.207,43.457
1586550744.719,81.055,32.227,24.414,42.969,30.762
1586550744.722,100.098,31.738,23.438,55.664,9.277
1586550744.726,-11.719,33.203,25.879,16.602,55.176
1586550744.730,-45.410,33.691,23.438,0.488,62.012
1586550744.734,49.316,30.273,20.508,39.062,-1.465
1586550744.738,123.535,28.809,20.508,64.941,-5.371
1586550744.742,23.926,32.227,21.484,29.785,39.551
1586550744.746,-28.320,30.273,20.996,5.371,-12.207
1586550744.750,37.109,31.738,22.461,31.250,-54.199
1586550744.754,116.699,36.621,26.367,72.754,30.762
1586550744.758,53.711,36.621,24.902,44.922,9.277
1586550744.762,-43.457,36.133,23.926,3.906,10.254
1586550744.765,-12.695,34.180,22.949,18.555,58.594
1586550744.769,96.680,32.715,22.949,60.547,75.684
1586550744.773,88.867,36.133,27.832,60.547,57.129
1586550744.777,-27.832,37.598,27.832,12.695,26.855
1586550744.781,-19.531,34.668,24.414,9.766,-11.230
1586550744.785,86.914,35.645,24.902,49.805,29.297
1586550744.789,112.793,37.109,24.902,62.500,89.355
1586550744.793,-3.418,35.156,24.902,19.531,-10.742
1586550744.797,-33.691,33.691,22.949,-2.441,-37.598
1586550744.801,60.547,33.691,22.949,34.668,31.738
1586550744.804,133.789,34.668,25.391,69.824,64.941
1586550744.808,33.203,29.297,25.391,26.367,-3.418
1586550744.812,-37.109,29.785,22.461,-6.348,-13.184
1586550744.816,28.320,33.203,21.484,21.484,48.828
1586550744.820,125.488,33.203,23.438,64.941,56.152
1586550744.824,66.406,32.227,24.414,45.898,38.574
1586550744.828,-32.227,28.320,23.926,1.465,18.066
1586550744.832,3.906,29.785,23.438,13.672,25.879
1586550744.836,98.145,29.297,22.949,57.617,102.051
1586550744.840,83.496,27.832,19.531,55.176,141.113
1586550744.844,-28.320,29.297,19.531,7.812,54.688
1586550744.847,-19.043,28.320,23.438,10.742,-32.227
1586550744.851,75.684,28.809,22.461,45.410,22.461
1586550744.855,114.258,30.273,24.902,60.547,90.820
1586550744.859,5.859,27.832,25.879,26.367,-5.859
1586550744.863,-37.109,27.832,24.414,-0.488,-104.980
1586550744.867,45.410,32.227,23.926,29.297,-72.266
1586550744.871,122.070,32.227,20.508,68.848,39.062
1586550744.875,33.203,27.832,25.391,38.574,38.574
1586550744.879,-42.969,28.809,26.367,-1.953,4.395
1586550744.883,23.926,29.785,24.414,13.672,25.391
1586550744.887,117.676,30.273,21.973,56.641,35.645
1586550744.890,63.965,32.715,19.043,46.387,41.016
1586550744.894,-39.062,30.762,21.973,5.371,57.617
1586550744.898,-11.230,28.809,22.461,7.324,22.949
1586550744.902,95.703,26.367,20.508,50.293,14.160
1586550744.906,94.238,26.855,21.484,57.129,29.297
1586550744.910,-28.320,24.902,24.414,13.672,47.363
1586550744.914,-31.250,20.996,24.902,5.371,30.762
1586550744.918,62.988,25.879,23.926,39.551,21.973
1586550744.922,112.305,30.762,24.414,63.477,78.125
1586550744.926,5.371,31.738,25.391,17.090,54.688
1586550744.929,-47.852,32.227,23.926,-14.160,56.152
1586550744.933,27.832,28.320,21.484,16.113,37.598
1586550744.937,114.746,26.855,22.461,62.500,53.711
1586550744.941,38.574,28.809,24.414,38.574,-21.484
1586550744.945,-51.758,27.344,25.391,-3.418,-72.754
1586550744.949,-0.488,27.832,25.391,13.672,-70.312
1586550744.953,107.422,32.715,23.926,59.570,-49.316
1586550744.957,71.289,37.109,21.973,50.293,50.781
1586550744.961,-41.016,37.109,22.461,0.977,51.758
1586550744.965,-20.996,35.156,21.484,0.977,27.832
1586550744.969,83.496,37.109,20.996,43.457,48.828
1586550744.972,100.098,36.621,25.391,65.430,92.773
1586550744.976,-16.113,38.086,28.809,22.949,29.785
1586550744.980,-37.598,37.598,27.832,1.465,14.160
1586550744.984,50.293,33.203,24.414,29.297,63.965
1586550744.988,110.352,34.180,23.438,54.199,40.039
1586550744.992,7.812,32.227,22.949,17.578,-33.691
1586550744.996,-53.711,28.320,22.949,-14.160,2.441
1586550745.000,10.742,28.809,23.438,15.625,35.645
1586550745.004,104.980,30.762,21.484,60.059,52.734
1586550745.008,48.340,28.809,20.996,39.062,79.102
1586550745.012,-46.875,27.832,20.996,-4.395,-29.785
1586550745.015,-14.160,27.832,23.926,8.301,-62.988
1586550745.019,91.309,24.414,25.879,54.199,21.973
1586550745.023,82.031,20.996,24.902,49.805,19.043
1586550745.027,-31.738,26.367,25.879,2.930,-16.113
1586550745.031,-26.855,30.273,27.832,2.441,-41.016
1586550745.035,74.707,32.715,27.832,45.410,-20.020
1586550745.039,106.934,34.180,27.344,64.941,30.273
1586550745.043,-3.418,32.715,27.344,20.508,46.875
1586550745.047,-33.203,33.203,25.391,2.930,-6.348
1586550745.051,56.641,31.250,24.902,39.062,-1.953
1586550745.054,129.395,29.785,25.879,68.848,123.047
1586550745.058,30.762,31.738,24.414,32.227,65.430
1586550745.062,-39.062,31.738,22.461,-1.465,-24.414
1586550745.066,21.484,29.785,18.555,17.090,39.062
1586550745.070,111.816,27.344,20.020,56.641,79.590
1586550745.074,55.176,27.832,24.414,38.574,15.137
1586550745.078,-42.480,28.809,22.461,-8.789,-12.695
1586550745.082,-2.930,27.832,19.043,-3.906,3.906
1586550745.086,104.980,24.902,19.043,43.457,25.391
1586550745.090,104.492,28.320,26.855,57.617,40.039
1586550745.094,-12.695,32.227,29.785,15.625,14.648
1586550745.097,-22.461,32.227,23.438,0.000,17.090
1586550745.101,62.012,29.297,24.902,40.039,11.719
1586550745.105,96.680,23.438,26.855,63.965,-2.930
1586550745.109,-9.766,26.367,25.391,20.508,5.371
1586550745.113,-53.711,32.227,26.367,-2.930,34.668
1586550745.117,33.203,34.668,24.414,24.414,58.594
1586550745.121,118.652,36.133,21.973,62.500,101.074
1586550745.125,34.180,36.133,20.508,36.621,68.848
1586550745.129,-42.480,35.645,21.973,-1.953,21.484
1586550745.133,18.555,35.645,24.414,20.996,-36.621
1586550745.137,123.047,34.668,22.461,66.406,-35.156
1586550745.140,69.336,30.273,27.344,45.410,-3.418
1586550745.144,-42.969,26.855,27.832,-6.348,13.672
1586550745.148,-11.230,32.715,27.832,0.000,34.180
1586550745.152,88.867,28.809,30.762,44.434,46.875
1586550745.156,89.844,15.625,31.738,51.758,59.570
1586550745.160,-24.902,24.902,31.250,9.277,68.848
1586550745.164,-40.039,35.156,28.809,1.465,53.223
1586550745.168,51.270,35.156,27.344,38.086,0.488
1586550745.172,106.934,32.715,26.367,61.523,29.297
1586550745.176,6.836,32.715,25.879,25.879,16.113
1586550745.179,-45.898,33.203,26.367,0.977,16.602
1586550745.183,33.203,32.715,26.367,27.832,28.320
1586550745.187,122.070,34.668,25.879,65.918,84.473
1586550745.191,43.457,34.180,23.926,37.598,95.703
1586550745.195,-46.387,32.715,13.184,-2.441,4.883
1586550745.199,-4.395,29.785,12.695,13.184,2.441
1586550745.203,97.656,28.809,24.902,53.223,43.945
1586550745.207,63.965,29.785,28.320,41.016,52.246
1586550745.211,-45.410,31.250,25.879,2.441,47.852
1586550745.215,-24.902,30.273,26.855,1.953,40.039
1586550745.219,73.730,31.250,29.785,34.180,63.965
1586550745.222,93.750,36.133,24.902,51.758,71.777
1586550745.226,-21.484,36.621,25.879,9.766,-10.254
1586550745.230,-42.480,34.180,27.344,-6.836,-34.668
1586550745.234,54.199,33.203,23.438,31.738,-16.113
1586550745.238,122.559,36.621,22.949,64.941,76.172
1586550745.242,25.391,38.086,24.414,31.250,84.473
1586550745.246,-35.156,31.250,24.414,5.371,9.766
1586550745.250,34.180,26.855,22.461,38.086,-8.789
1586550745.254,113.770,30.273,20.996,75.684,-4.395
1586550745.258,46.387,36.621,22.949,47.852,17.578
1586550745.262,-43.945,39.551,23.926,2.441,29.785
1586550745.265,-3.418,37.598,23.926,11.230,32.227
1586550745.269,98.145,32.715,25.391,54.199,53.711
1586550745.273,84.473,33.691,26.855,55.664,-3.418
1586550745.277,-34.180,35.645,25.391,4.883,-5.859
1586550745.281,-32.715,31.738,21.484,-1.953,59.570
1586550745.285,70.801,32.227,20.020,44.922,12.695
1586550745.289,101.074,31.738,27.344,63.965,-16.602
1586550745.293,-8.301,31.738,30.273,19.043,9.766
1586550745.297,-34.668,31.250,24.902,-6.836,-10.742
1586550745.301,49.316,27.832,25.391,24.902,-8.789
1586550745.304,122.559,31.738,31.250,64.941,86.914
1586550745.308,26.855,32.715,27.344,32.227,59.082
1586550745.312,-43.945,28.320,21.973,-2.930,34.180
1586550745.316,20.020,31.250,23.926,14.160,53.711
1586550745.320,113.770,31.250,25.391,47.852,108.398
1586550745.324,61.035,29.297,26.855,38.086,77.637
1586550745.328,-42.969,27.344,27.832,0.488,-11.719
1586550745.332,-9.277,27.832,25.391,4.395,2.441
1586550745.336,103.516,30.273,23.438,50.781,33.203
1586550745.340,95.703,32.715,23.926,54.199,42.480
1586550745.344,-31.738,34.180,24.902,5.371,-4.395
1586550745.347,-32.715,35.645,24.414,-1.953,-55.176
1586550745.351,66.895,32.227,23.438,38.574,2.930
1586550745.355,106.445,30.273,25.879,69.336,80.078
1586550745.359,-2.441,37.109,28.809,25.391,52.246
1586550745.363,-43.945,39.062,22.461,-2.930,24.902
1586550745.367,36.133,36.133,19.043,28.320,21.973
1586550745.371,117.188,33.691,21.973,61.523,60.547
1586550745.375,32.715,31.738,22.949,27.832,78.613
1586550745.379,-45.898,28.809,24.902,-3.906,31.250
1586550745.383,12.695,27.344,25.391,19.043,6.348
1586550745.387,114.746,27.344,24.902,60.059,67.383
1586550745.390,73.242,29.297,27.832,54.199,31.250
1586550745.394,-34.180,32.715,26.855,5.859,-3.418
1586550745.398,-12.695,27.832,26.855,-0.977,51.758
1586550745.402,84.961,23.926,27.832,42.969,55.176
1586550745.406,96.191,27.832,25.879,55.176,50.293
1586550745.410,-24.414,31.250,26.855,9.277,9.766
1586550745.414,-35.645,30.762,29.297,3.418,-14.160
1586550745.418,66.406,29.785,29.297,40.039,1.953
1586550745.422,119.629,36.133,24.902,62.988,45.410
1586550745.426,9.277,29.785,24.414,28.809,31.738
1586550745.429,-50.293,20.996,28.320,2.930,22.461
1586550745.433,30.273,31.250,22.461,27.832,-0.977
1586550745.437,124.512,38.086,22.461,70.312,31.738
1586550745.441,51.758,35.645,27.344,45.898,48.828
1586550745.445,-32.227,35.645,30.762,5.371,9.766
1586550745.449,8.301,31.738,33.203,16.113,12.695
1586550745.453,95.703,28.320,30.762,53.711,38.574
1586550745.457,69.336,31.738,28.809,46.387,57.129
1586550745.461,-43.945,31.738,27.344,2.441,20.508
1586550745.465,-31.738,28.320,27.344,3.906,-26.367
1586550745.469,79.102,27.344,26.855,44.434,26.855
1586550745.472,102.051,31.738,25.879,62.500,96.191
1586550745.476,-17.578,33.203,25.391,16.602,50.781
1586550745.480,-39.551,33.203,21.484,-5.371,23.926
1586550745.484,52.734,34.180,20.020,30.273,46.387
1586550745.488,115.234,32.715,26.367,70.801,72.754
1586550745.492,13.672,33.203,27.832,32.227,47.852
1586550745.496,-47.363,32.715,25.391,-7.812,46.875
1586550745.500,27.344,31.738,28.320,20.020,42.969
1586550745.504,125.000,32.227,26.855,56.641,19.531
1586550745.508,59.570,31.738,25.879,32.715,14.648
1586550745.512,-41.504,35.156,25.879,-13.184,-5.371
1586550745.515,-0.977,35.645,21.973,-0.488,-10.254
1586550745.519,100.098,33.203,20.996,47.363,61.035
1586550745.523,83.984,33.691,21.973,46.387,106.934
1586550745.527,-36.133,31.738,20.996,4.883,68.359
1586550745.531,-35.156,28.809,22.949,-1.953,53.223
1586550745.535,69.336,27.832,22.949,40.527,60.547
1586550745.539,107.422,28.809,23.926,63.477,51.758
1586550745.543,-5.859,28.809,23.438,16.113,20.020
1586550745.547,-39.551,30.762,16.602,-3.906,-44.434
1586550745.551,51.758,29.785,19.531,31.738,7.812
1586550745.554,125.488,28.809,25.391,67.383,62.012
1586550745.558,32.227,30.762,29.297,34.668,-11.719
1586550745.562,-41.992,30.273,26.367,-1.953,-23.438
1586550745.566,19.043,29.297,20.996,19.043,-4.395
1586550745.570,122.559,30.273,24.414,59.082,37.598
1586550745.574,74.219,33.203,26.367,45.410,44.922
1586550745.578,-40.527,30.273,23.438,5.859,-6.348
1586550745.582,-13.672,31.738,21.484,4.395,-42.480
1586550745.586,97.168,31.738,20.996,46.875,-13.672
1586550745.590,97.168,27.832,20.996,53.711,17.090
1586550745.594,-26.367,27.344,20.020,2.441,-31.250
1586550745.597,-36.621,27.344,20.996,-1.953,20.020
1586550745.601,63.965,27.832,20.508,36.621,78.613
1586550745.605,109.863,26.367,17.090,61.035,76.172
1586550745.609,4.395,26.855,18.555,16.602,46.875
1586550745.613,-33.203,27.344,21.973,-6.836,13.184
1586550745.617,44.922,26.367,23.438,31.250,48.340
1586550745.621,122.070,25.879,24.414,59.570,58.594
1586550745.625,41.504,29.297,24.902,28.320,17.090
1586550745.629,-41.992,30.762,22.461,-3.418,7.324
1586550745.633,3.418,26.855,21.973,19.043,-5.371
1586550745.637,104.004,26.367,22.461,65.918,17.578
1586550745.640,72.266,31.738,24.902,52.734,56.152
1586550745.644,-36.621,33.203,26.855,2.441,23.438
1586550745.648,-14.648,34.668,29.297,10.742,9.277
1586550745.652,91.797,30.762,26.855,57.129,51.758
1586550745.656,101.562,23.926,23.438,60.059,72.754
1586550745.660,-13.184,25.879,22.949,9.277,47.363
1586550745.664,-30.762,27.832,20.996,4.395,11.230
1586550745.668,57.617,30.273,20.996,53.223,19.043
1586550745.672,113.281,32.227,21.484,77.637,40.527
1586550745.676,13.184,32.715,26.367,30.762,-14.160
1586550745.679,-40.527,33.691,27.344,1.953,-4.395
1586550745.683,36.621,33.691,21.973,24.902,24.902
1586550745.687,126.953,33.203,21.484,62.012,8.301
1586550745.691,46.875,31.250,22.949,36.621,17.090
1586550745.695,-36.621,32.715,24.414,-7.812,32.715
1586550745.699,17.578,35.645,19.043,2.930,60.547
1586550745.703,110.840,33.203,17.578,53.223,35.645
1586550745.707,80.078,37.109,24.902,57.129,88.379
1586550745.711,-29.297,36.133,24.414,6.348,29.297
1586550745.715,-20.996,27.344,16.602,0.488,-22.949
1586550745.719,78.125,28.809,11.719,46.875,37.109
1586550745.722,103.027,29.297,22.461,65.430,25.391
1586550745.726,-16.602,24.902,32.227,16.602,-43.945
1586550745.730,-41.992,27.832,29.785,-5.371,-45.410
1586550745.734,62.012,37.598,27.832,32.715,26.367
1586550745.738,128.418,37.109,24.902,62.988,55.664
1586550745.742,24.902,34.180,22.949,22.461,28.320
1586550745.746,-42.480,32.715,25.879,-2.441,2.930
1586550745.750,18.555,29.297,27.344,21.484,-3.418
1586550745.754,113.281,30.273,26.367,59.570,23.926
1586550745.758,50.293,32.715,24.902,37.109,66.406
1586550745.762,-42.480,31.250,22.949,-5.859,39.551
1586550745.765,2.930,32.715,20.996,6.836,11.719
1586550745.769,103.516,34.668,20.996,49.316,52.246
1586550745.773,85.938,34.668,24.414,52.246,35.156
1586550745.777,-30.273,36.133,25.879,11.230,21.973
1586550745.781,-30.762,31.250,20.996,0.977,34.180
1586550745.785,62.988,26.855,19.531,33.691,27.832
1586550745.789,99.121,28.320,21.484,55.664,46.875
1586550745.793,-7.812,30.273,23.438,19.043,23.926
1586550745.797,-41.504,30.762,25.879,-3.418,-24.414
1586550745.801,44.434,30.762,24.902,26.367,-10.254
1586550745.804,125.000,31.250,23.926,65.918,53.711
1586550745.808,34.668,31.738,25.879,35.645,70.312
1586550745.812,-47.363,28.320,19.531,1.465,43.945
1586550745.816,16.113,21.973,20.020,21.973,87.891
1586550745.820,119.629,25.879,28.320,62.500,103.027
1586550745.824,65.918,36.133,30.273,48.828,38.574
1586550745.828,-45.410,36.621,30.762,-2.441,39.062
1586550745.832,-11.230,33.691,29.785,-1.465,70.801
1586550745.836,104.004,35.645,26.367,44.922,90.820
1586550745.840,97.168,36.133,24.902,46.875,61.523
1586550745.844,-30.273,34.668,26.367,-0.977,-0.488
1586550745.847,-36.621,32.227,27.832,-7.812,-15.625
1586550745.851,60.547,31.250,27.832,32.227,-27.344
1586550745.855,118.164,36.621,29.297,63.477,59.570
1586550745.859,4.395,32.227,26.367,18.555,61.523
1586550745.863,-52.734,26.855,20.996,-15.137,13.672
1586550745.867,23.926,27.832,21.973,14.648,20.508
1586550745.871,108.887,28.809,25.879,59.082,37.598
1586550745.875,30.273,31.250,25.879,32.227,12.207
1586550745.879,-56.152,31.738,21.973,-9.277,-26.855
1586550745.883,0.000,32.227,20.508,10.742,21.484
1586550745.887,104.492,32.227,21.484,57.129,92.773
1586550745.890,69.824,30.762,22.461,45.898,56.152
1586550745.894,-34.180,31.250,20.996,1.465,-32.227
1586550745.898,-9.277,30.762,16.602,3.418,-52.246
1586550745.902,93.750,32.227,16.602,46.387,-35.156
1586550745.906,99.121,33.203,21.973,64.453,7.812
1586550745.910,-23.926,30.762,24.902,20.020,14.648
1586550745.914,-33.203,31.738,22.461,-1.953,35.156
1586550745.918,60.547,28.809,18.555,31.250,86.426
1586550745.922,118.164,25.879,18.555,62.988,102.539
1586550745.926,28.320,26.367,20.996,29.785,30.762
1586550745.929,-34.668,26.367,20.996,1.465,57.129
1586550745.933,22.461,34.668,25.391,23.438,94.238
1586550745.937,106.445,36.621,28.320,60.059,69.824
1586550745.941,41.504,34.180,23.438,39.062,72.754
1586550745.945,-52.734,32.715,23.438,5.859,40.039
1586550745.949,-16.602,28.320,26.367,14.648,57.129
1586550745.953,96.191,27.832,26.855,52.246,70.801
1586550745.957,83.008,30.762,28.320,51.270,40.527
1586550745.961,-28.809,25.879,25.879,8.789,-0.488
1586550745.965,-17.090,24.902,24.414,8.301,-8.301
1586550745.969,88.379,27.832,28.320,47.363,3.906
1586550745.972,112.793,29.785,27.832,58.105,50.781
1586550745.976,-11.719,31.738,25.391,11.719,40.039
1586550745.980,-36.621,31.250,21.484,-2.441,28.809
1586550745.984,56.641,31.738,17.578,28.809,24.414
1586550745.988,122.559,29.785,23.438,70.312,20.020
1586550745.992,26.367,31.250,28.809,44.922,20.508
1586550745.996,-34.668,35.156,28.809,12.207,-27.832
1586550746.000,35.645,32.715,27.344,33.691,10.254
1586550746.004,122.559,31.250,28.320,64.453,85.938
1586550746.008,57.129,31.738,23.926,47.852,35.156
1586550746.012,-46.875,31.738,22.461,6.836,45.410
1586550746.015,-20.996,30.762,28.320,6.836,49.316
1586550746.019,83.984,28.320,26.367,46.387,39.062
1586550746.023,84.473,27.344,24.414,45.410,58.594
1586550746.027,-29.785,28.320,27.344,1.465,10.742
1586550746.031,-35.645,31.250,28.809,1.953,-2.441
1586550746.035,64.453,33.203,22.461,43.457,1.953
1586550746.039,104.492,34.668,19.531,66.895,47.363
1586550746.043,-2.930,31.250,23.438,26.367,65.430
1586550746.047,-38.086,30.273,26.855,0.000,42.480
1586550746.051,51.758,37.109,25.391,27.832,6.836
1586550746.054,128.906,41.016,25.391,66.895,45.410
1586550746.058,40.039,39.062,28.809,41.016,43.945
1586550746.062,-37.109,32.227,26.367,-2.930,10.742
1586550746.066,19.531,29.785,23.926,11.230,42.969
1586550746.070,118.164,36.133,19.043,58.105,51.758
1586550746.074,70.312,39.062,21.973,41.992,30.273
1586550746.078,-28.809,35.645,24.414,-4.883,33.691
1586550746.082,-2.930,31.738,23.438,5.859,39.551
1586550746.086,85.449,31.250,30.273,51.758,35.645
1586550746.090,79.102,33.691,31.738,58.105,19.531
1586550746.094,-30.762,32.715,27.832,8.789,-26.367
1586550746.097,-32.227,29.297,27.832,0.000,-28.320
1586550746.101,60.059,28.809,30.762,41.504,34.668
1586550746.105,104.492,31.250,25.879,62.012,58.594
1586550746.109,0.977,29.297,23.438,23.438,29.785
1586550746.113,-45.410,25.391,27.832,0.488,37.109
1586550746.117,34.180,23.926,28.809,26.367,-14.648
1586550746.121,119.629,27.832,26.855,65.430,30.273
1586550746.125,41.016,32.227,27.832,33.203,80.566
1586550746.129,-37.109,35.645,29.297,-4.395,28.809
1586550746.133,12.207,30.273,29.297,19.531,0.977
1586550746.137,114.258,27.344,27.832,64.453,26.367
1586550746.140,83.984,29.785,26.855,54.199,56.641
1586550746.144,-35.645,27.832,28.320,4.883,78.613
1586550746.148,-19.043,32.227,28.809,5.371,46.387
1586550746.152,80.566,36.133,28.320,48.340,12.695
1586550746.156,94.727,37.109,26.855,55.176,68.848
1586550746.160,-12.207,35.645,24.414,14.648,-1.465
1586550746.164,-31.738,35.645,27.344,0.000,-44.922
1586550746.168,60.547,35.156,30.273,30.762,72.266
1586550746.172,125.488,33.203,32.715,66.406,89.844
1586550746.176,25.879,32.715,34.180,30.273,63.477
1586550746.179,-39.551,29.785,29.297,-2.441,71.289
1586550746.183,32.227,30.273,25.879,21.973,-2.930
1586550746.187,118.164,32.715,29.297,67.383,69.336
1586550746.191,44.922,35.645,30.762,44.922,132.324
1586550746.195,-41.992,36.133,26.367,2.930,71.777
1586550746.199,-6.836,37.109,24.902,9.277,30.273
1586550746.203,93.750,37.598,24.902,48.340,-22.461
1586550746.207,72.266,34.668,25.879,50.293,13.672
1586550746.211,-52.246,31.738,28.320,0.977,-0.488
1586550746.215,-41.016,31.738,28.320,-3.906,-23.926
1586550746.219,69.824,31.738,23.438,39.062,19.531
1586550746.222,102.539,29.297,20.996,53.223,46.387
1586550746.226,-12.207,27.344,26.367,12.695,22.949
1586550746.230,-40.527,29.297,23.438,-6.348,19.531
1586550746.234,50.781,30.762,20.996,28.809,56.641
1586550746.238,114.746,32.715,24.902,62.988,79.102
1586550746.242,18.066,33.691,20.020,22.461,17.090
1586550746.246,-49.805,27.832,20.996,-12.207,4.395
1586550746.250,14.160,28.320,22.949,11.719,19.043
1586550746.254,115.234,37.109,19.531,54.688,13.672
1586550746.258,55.664,35.645,22.461,40.039,0.977
1586550746.262,-41.992,31.250,21.973,-4.883,1.465
1586550746.265,-7.324,34.180,20.508,12.207,32.715
1586550746.269,92.285,35.156,23.926,60.547,42.969
1586550746.273,87.891,30.762,23.926,56.641,33.203
1586550746.277,-22.949,28.809,22.949,7.812,-34.180
1586550746.281,-25.879,31.250,22.461,2.441,6.348
1586550746.285,66.895,28.320,22.461,43.945,29.297
1586550746.289,108.398,28.320,26.855,60.059,56.152
1586550746.293,-1.465,29.297,29.297,14.648,28.320
1586550746.297,-40.527,21.484,23.438,-6.836,-36.621
1586550746.301,45.898,21.973,21.973,22.461,-19.043
1586550746.304,119.141,25.879,21.973,55.176,32.227
1586550746.308,22.949,24.902,23.926,31.250,39.551
1586550746.312,-49.316,24.414,24.902,2.441,-15.625
1586550746.316,14.160,26.367,20.996,17.090,-5.371
1586550746.320,110.352,26.855,19.531,57.129,72.266
1586550746.324,68.848,28.320,25.391,44.434,23.438
1586550746.328,-32.715,29.297,28.320,0.977,-8.789
1586550746.332,-8.301,29.297,24.414,6.836,27.344
1586550746.336,94.727,29.785,19.531,46.875,39.062
1586550746.340,94.727,29.785,21.973,57.617,11.719
1586550746.344,-23.926,31.738,26.367,13.184,10.742
1586550746.347,-27.344,33.203,25.391,4.883,63.477
1586550746.351,72.266,33.691,23.926,41.016,44.922
1586550746.355,117.188,34.668,22.949,65.430,51.270
1586550746.359,8.301,37.109,23.438,23.438,47.852
1586550746.363,-38.086,34.668,25.879,-3.906,7.324
1586550746.367,38.086,34.180,26.367,24.902,-10.742
1586550746.371,122.070,34.180,28.320,63.477,3.418
1586550746.375,45.898,33.203,28.809,40.039,50.781
1586550746.379,-44.434,35.156,24.902,-2.930,44.434
1586550746.383,10.254,32.227,27.832,12.695,24.902
1586550746.387,118.652,33.691,29.785,65.430,87.891
1586550746.390,77.637,35.156,27.344,55.176,156.250
1586550746.394,-31.738,32.227,27.832,3.906,77.148
1586550746.398,-13.672,31.250,27.832,3.906,14.160
1586550746.402,93.262,28.809,27.832,55.176,88.379
1586550746.406,111.816,29.297,29.785,71.289,58.105
1586550746.410,-18.066,32.227,31.738,16.602,1.465
1586550746.414,-35.645,34.668,31.738,1.465,19.531
1586550746.418,66.406,32.715,30.762,41.016,36.133
1586550746.422,125.000,30.273,27.832,65.430,51.270
1586550746.426,17.578,31.738,26.367,23.926,-3.906
1586550746.429,-41.504,34.668,27.832,-8.789,-24.902
1586550746.433,30.273,37.598,26.367,17.090,24.414
1586550746.437,120.605,35.645,24.902,67.383,92.285
1586550746.441,57.129,35.156,29.297,47.363,16.113
1586550746.445,-40.527,35.156,33.203,1.953,-31.738
1586550746.449,-2.441,34.180,29.297,18.066,22.461
1586550746.453,105.469,33.691,26.367,69.824,24.902
1586550746.457,84.961,33.691,29.785,62.988,82.031
1586550746.461,-26.855,32.715,28.809,9.277,15.625
1586550746.465,-14.160,32.227,25.391,9.277,-9.277
1586550746.469,81.055,28.809,25.391,50.293,18.555
1586550746.472,109.863,30.762,26.855,63.477,25.391
1586550746.476,-1.465,33.691,28.320,20.020,48.828
1586550746.480,-34.180,31.250,26.855,3.906,-8.301
1586550746.484,57.129,29.785,22.949,37.109,-7.812
1586550746.488,126.465,32.715,23.926,68.848,85.449
1586550746.492,24.902,34.668,27.832,38.086,68.848
1586550746.496,-43.945,30.273,29.785,5.859,36.133
1586550746.500,23.926,31.250,29.785,23.438,16.602
1586550746.504,118.164,33.691,25.879,60.547,6.836
1586550746.508,60.059,31.738,27.344,40.527,44.434
1586550746.512,-41.504,30.273,25.391,-4.395,38.086
1586550746.515,-5.371,31.738,23.438,11.719,33.691
1586550746.519,98.145,33.691,24.414,56.641,76.172
1586550746.523,86.914,32.227,23.926,55.176,36.133
1586550746.527,-31.250,28.320,22.461,16.113,10.254
1586550746.531,-30.273,29.297,23.438,10.254,0.000
1586550746.535,70.801,30.762,24.902,51.758,-43.457
1586550746.539,120.117,33.691,25.391,78.613,32.715
1586550746.543,11.719,33.203,26.367,33.203,54.199
1586550746.547,-26.855,30.273,26.367,11.719,-13.184
1586550746.551,64.453,32.715,23.438,41.016,-3.906
1586550746.554,139.648,32.715,24.414,75.684,25.391
1586550746.558,44.434,32.227,26.855,39.551,12.207
1586550746.562,-43.945,34.668,26.367,7.812,4.395
1586550746.566,12.695,33.691,27.344,30.273,50.293
1586550746.570,117.188,33.691,26.855,63.965,90.332
1586550746.574,72.266,34.180,26.367,52.734,38.574
1586550746.578,-38.574,32.715,27.832,4.883,6.348
1586550746.582,-20.508,33.691,25.879,7.324,-29.785
1586550746.586,82.520,29.785,24.902,52.734,27.832
1586550746.590,91.309,28.809,26.855,59.082,98.633
1586550746.594,-25.879,33.203,26.367,11.230,61.523
1586550746.597,-31.250,31.250,26.367,-4.883,61.523
1586550746.601,66.406,32.227,24.414,33.691,35.156
1586550746.605,113.281,31.738,19.531,66.406,51.758
1586550746.609,-4.395,24.414,22.949,24.414,24.414
1586550746.613,-57.617,24.902,26.855,-4.395,8.301
1586550746.617,28.320,33.203,26.367,26.367,73.242
1586550746.621,122.070,35.156,25.391,66.406,59.570
1586550746.625,41.504,32.227,27.832,46.875,20.508
1586550746.629,-48.340,32.715,27.344,4.883,-22.949
1586550746.633,9.766,32.715,23.926,8.301,-13.672
1586550746.637,112.793,32.227,23.438,52.734,12.207
1586550746.640,72.754,32.715,22.461,46.387,20.996
1586550746.644,-36.621,26.367,23.926,-2.441,-15.137
1586550746.648,-11.719,24.902,23.438,-4.883,-0.488
1586550746.652,83.008,25.879,20.508,37.109,81.055
1586550746.656,96.191,25.879,19.043,53.223,41.504
1586550746.660,-14.160,26.855,22.461,10.254,-37.598
1586550746.664,-41.016,25.391,24.902,0.488,-15.137
1586550746.668,50.293,28.809,24.902,38.086,-2.441
1586550746.672,112.305,34.668,25.391,65.430,-9.766
1586550746.676,14.648,33.691,22.461,22.949,-25.879
1586550746.679,-41.016,30.273,21.973,-12.695,-20.508
1586550746.683,38.086,34.180,22.949,15.625,12.207
1586550746.687,127.930,34.180,20.996,59.570,51.270
1586550746.691,46.387,32.227,20.996,42.480,62.988
1586550746.695,-45.898,31.738,19.531,4.395,39.062
1586550746.699,2.930,29.297,19.531,16.113,50.293
1586550746.703,115.723,27.832,21.484,60.547,43.457
1586550746.707,96.191,26.367,24.414,56.152,41.992
1586550746.711,-21.973,30.762,21.973,2.930,82.031
1586550746.715,-3.418,35.156,16.113,3.418,65.430
1586550746.719,96.191,32.227,19.531,48.340,22.461
1586550746.722,115.234,32.715,23.438,66.895,60.059
1586550746.726,-0.488,33.203,23.438,17.090,63.965
1586550746.730,-29.785,31.738,23.926,-3.906,25.391
1586550746.734,51.758,32.227,23.438,35.156,6.836
1586550746.738,117.188,32.227,22.461,62.500,14.648
1586550746.742,28.809,32.715,25.879,24.414,-87.891
1586550746.746,-29.297,32.227,25.879,-6.836,-89.355
1586550746.750,31.738,29.785,23.438,16.602,9.277
1586550746.754,126.953,28.320,26.367,64.941,51.270
1586550746.758,65.918,32.227,27.344,44.434,62.500
1586550746.762,-46.875,34.668,25.391,-1.953,39.551
1586550746.765,-16.113,32.715,27.832,3.906,49.805
1586550746.769,88.379,33.203,27.344,46.875,77.637
1586550746.773,90.820,33.691,25.391,48.340,31.250
1586550746.777,-20.020,34.668,25.391,3.906,-30.762
1586550746.781,-16.602,36.133,23.926,2.930,4.883
1586550746.785,82.031,30.762,22.949,37.109,63.477
1586550746.789,113.281,30.762,22.949,57.617,36.133
1586550746.793,-4.883,32.227,23.438,16.602,-37.109
1586550746.797,-56.641,29.297,25.391,-5.371,-52.734
1586550746.801,18.066,29.785,27.344,26.367,-6.836
1586550746.804,108.398,31.738,24.414,61.035,62.988
1586550746.808,32.227,32.227,22.949,37.598,73.730
1586550746.812,-47.852,29.297,26.855,2.441,15.137
1586550746.816,5.859,29.785,28.809,13.184,23.926
1586550746.820,104.980,31.250,26.855,49.805,45.410
1586550746.824,64.941,30.762,25.879,34.180,46.387
1586550746.828,-37.109,31.250,25.879,-9.766,35.156
1586550746.832,-16.113,32.715,25.879,0.000,27.832
1586550746.836,81.055,32.227,26.367,48.828,46.875
1586550746.840,83.984,33.691,27.344,58.105,65.430
1586550746.844,-32.227,32.227,23.926,3.906,30.273
1586550746.847,-45.410,30.762,18.066,-13.672,-33.203
1586550746.851,45.410,33.203,19.043,25.391,-5.371
1586550746.855,102.539,34.180,22.949,55.664,37.598
1586550746.859,-1.465,33.203,26.855,14.160,39.062
1586550746.863,-51.270,32.715,27.344,-8.789,9.277
1586550746.867,31.738,33.203,24.902,16.113,1.953
1586550746.871,122.070,30.762,23.438,48.340,53.711
1586550746.875,44.434,26.855,25.879,29.785,60.059
1586550746.879,-49.316,28.320,25.879,-9.277,85.449
1586550746.883,-1.465,32.227,24.902,2.441,57.129
1586550746.887,107.910,31.738,24.414,51.758,37.109
1586550746.890,74.219,32.227,24.414,46.875,44.922
1586550746.894,-43.945,30.762,27.832,-1.953,13.184
1586550746.898,-29.297,34.180,25.879,3.906,33.203
1586550746.902,77.637,34.180,24.414,50.781,70.312
1586550746.906,102.539,30.273,27.344,69.336,50.781
1586550746.910,-17.578,29.785,26.367,13.672,-10.254
1586550746.914,-45.410,29.297,26.367,-12.695,-4.395
1586550746.918,52.734,30.762,26.855,29.785,15.625
1586550746.922,121.582,32.715,26.855,65.918,54.688
1586550746.926,32.227,31.738,30.762,33.203,73.242
1586550746.929,-28.320,30.762,31.250,1.465,69.824
1586550746.933,31.250,29.785,29.785,28.809,7.324
1586550746.937,125.488,28.809,30.273,74.219,16.602
1586550746.941,56.152,29.297,29.785,50.293,37.598
1586550746.945,-40.039,30.762,30.762,9.277,6.836
1586550746.949,-1.465,28.809,34.180,21.973,6.836
1586550746.953,106.445,26.367,31.738,63.965,20.996
1586550746.957,88.867,26.367,31.738,64.941,11.230
1586550746.961,-41.992,27.344,34.668,15.137,-9.766
1586550746.965,-35.156,27.832,28.809,4.883,13.672
1586550746.969,66.895,27.832,21.484,46.875,82.031
1586550746.972,98.633,31.738,23.438,56.152,66.406
1586550746.976,-10.742,32.715,27.344,12.695,8.301
1586550746.980,-38.574,33.203,27.832,2.930,-0.488
1586550746.984,43.945,35.645,27.832,28.809,-18.066
1586550746.988,105.469,35.645,25.879,63.477,22.461
1586550746.992,11.719,33.203,26.367,28.320,56.152
1586550746.996,-47.852,30.273,28.809,-5.371,-8.301
1586550747.000,13.672,26.855,25.879,16.113,-10.742
1586550747.004,104.980,22.461,23.926,55.176,48.340
1586550747.008,57.617,27.832,26.855,46.875,94.727
1586550747.012,-37.109,34.668,27.344,1.953,98.633
1586550747.015,-9.277,31.738,27.344,1.465,78.125
1586550747.019,94.238,30.273,26.367,49.805,114.258
1586550747.023,88.379,33.203,27.832,52.734,64.941
1586550747.027,-36.621,34.180,27.832,1.953,22.949
1586550747.031,-36.621,33.691,23.926,-4.883,64.453
1586550747.035,65.430,31.250,19.531,29.785,68.359
1586550747.039,105.469,31.250,19.043,49.805,45.410
1586550747.043,1.465,36.133,23.438,13.184,35.156
1586550747.047,-46.875,32.227,27.344,-6.836,-3.418
1586550747.051,27.344,27.832,27.344,21.484,14.648
1586550747.054,113.281,30.273,26.367,55.176,61.523
1586550747.058,31.250,32.227,27.832,29.785,63.477
1586550747.062,-46.387,31.250,25.879,-1.953,47.852
1586550747.066,17.578,30.762,24.902,17.578,67.383
1586550747.070,118.652,33.203,26.367,63.477,42.480
1586550747.074,73.242,34.180,26.367,55.176,2.441
1586550747.078,-31.738,32.227,24.414,8.301,67.871
1586550747.082,-8.789,30.273,26.367,8.301,50.781
1586550747.086,97.168,33.691,28.320,55.664,42.480
1586550747.090,105.469,33.691,26.367,62.988,69.336
1586550747.094,-11.230,28.809,25.391,11.230,44.434
1586550747.097,-25.879,30.273,22.461,3.906,27.832
1586550747.101,65.918,28.809,21.973,41.992,24.414
1586550747.105,125.977,30.762,23.926,64.453,17.578
1586550747.109,22.461,35.156,26.367,26.855,-25.879
1586550747.113,-40.527,36.621,29.297,-2.930,4.395
1586550747.117,28.809,37.109,27.832,26.367,30.762
1586550747.121,119.629,34.180,26.367,66.406,67.383
1586550747.125,47.363,33.691,28.320,44.922,93.750
1586550747.129,-37.109,35.645,27.832,8.789,47.852
1586550747.133,12.695,34.180,26.855,16.602,29.785
1586550747.137,111.328,32.715,26.855,62.500,50.293
1586550747.140,81.543,37.598,26.367,55.176,-25.879
1586550747.144,-30.762,39.551,27.344,4.395,-30.273
1586550747.148,-18.555,35.156,26.855,5.371,20.996
1586550747.152,83.008,32.227,22.461,51.270,1.465
1586550747.156,105.469,31.738,20.996,62.500,30.273
1586550747.160,-8.789,33.203,21.973,19.531,21.484
1586550747.164,-35.645,31.738,20.996,2.930,-5.859
1586550747.168,50.293,28.320,20.020,34.668,-18.066
1586550747.172,110.840,30.273,18.555,65.918,3.906
1586550747.176,15.625,30.762,21.973,27.832,4.883
1586550747.179,-42.969,30.273,22.461,-6.836,9.766
1586550747.183,22.461,32.227,19.531,15.137,-3.418
1586550747.187,115.234,32.715,24.414,62.500,10.742
1586550747.191,53.711,31.250,26.855,47.852,20.020
1586550747.195,-37.109,29.785,25.391,5.371,9.766
1586550747.199,3.906,29.785,25.879,13.184,44.434
1586550747.203,101.562,29.297,23.438,57.129,-5.371
1586550747.207,80.566,31.250,23.926,55.664,15.625
1586550747.211,-37.109,30.273,26.367,7.324,-13.184
1586550747.215,-37.109,26.855,27.832,5.859,-17.578
1586550747.219,62.012,29.297,28.809,43.945,65.430
1586550747.222,97.168,28.809,28.320,59.570,46.875
1586550747.226,-9.766,33.203,26.855,14.648,27.832
1586550747.230,-39.551,35.156,23.926,-6.836,22.949
1586550747.234,42.969,31.250,22.461,24.414,-4.395
1586550747.238,107.910,33.691,20.996,58.105,38.574
1586550747.242,18.555,35.645,23.438,33.203,28.809
1586550747.246,-49.805,35.156,25.391,-1.465,-4.883
1586550747.250,15.625,33.203,26.367,15.137,3.906
1586550747.254,111.328,30.762,27.344,59.570,50.781
1586550747.258,53.223,30.273,25.879,38.574,62.012
1586550747.262,-44.922,29.297,25.879,-3.906,-8.301
1586550747.265,-8.789,29.785,23.926,11.230,1.465
1586550747.269,97.168,30.762,23.438,54.688,21.484
1586550747.273,91.797,31.738,23.926,56.641,6.836
1586550747.277,-22.949,35.156,24.902,7.812,-8.301
1586550747.281,-26.855,30.762,25.879,2.441,5.371
1586550747.285,65.430,26.367,23.438,43.945,53.223
1586550747.289,110.352,30.273,22.461,68.848,46.387
1586550747.293,1.953,31.738,21.484,27.832,24.414
1586550747.297,-41.504,31.738,22.461,-3.906,57.129
1586550747.301,42.969,33.691,24.414,24.414,77.637
1586550747.304,120.605,30.762,25.879,66.406,49.316
1586550747.308,37.109,29.785,25.879,35.645,23.926
1586550747.312,-41.504,29.785,24.902,-12.695,17.578
1586550747.316,5.371,27.344,22.949,7.324,41.992
1586550747.320,103.027,29.297,22.461,53.223,103.516
1586550747.324,65.918,29.785,22.949,43.457,75.195
1586550747.328,-47.852,26.855,24.414,-2.441,24.414
1586550747.332,-27.344,24.902,23.438,2.441,42.480
1586550747.336,87.891,27.344,22.949,47.852,24.902
1586550747.340,108.887,31.250,25.391,46.387,68.359
1586550747.344,-0.977,32.715,27.344,2.441,109.863
1586550747.347,-19.043,34.180,24.414,1.953,28.809
1586550747.351,62.012,35.645,22.949,39.551,-43.457
1586550747.355,102.539,32.715,25.879,66.895,-28.320
1586550747.359,-9.766,30.762,27.344,27.344,50.293
1586550747.363,-62.012,27.832,28.320,0.488,-12.695
1586550747.367,18.555,27.832,28.320,24.902,-32.715
1586550747.371,106.934,31.738,26.855,54.688,24.414
1586550747.375,38.086,34.180,27.344,37.109,-4.395
1586550747.379,-45.898,33.203,28.320,-1.953,-47.852
1586550747.383,2.930,33.203,28.320,4.395,-51.270
1586550747.387,111.328,32.715,24.414,53.223,40.039
1586550747.390,83.496,33.203,22.461,49.805,48.340
1586550747.394,-26.855,33.691,26.855,8.789,-25.879
1586550747.398,-13.672,31.738,28.809,10.254,-7.812
1586550747.402,80.078,31.250,28.320,50.293,6.348
1586550747.406,101.562,29.785,29.297,63.965,19.531
1586550747.410,-8.789,27.344,29.297,17.578,25.391
1586550747.414,-29.297,28.320,25.391,0.000,5.371
1586550747.418,57.617,28.320,28.320,29.785,28.320
1586550747.422,123.047,30.273,27.344,59.082,38.086
1586550747.426,30.762,32.227,25.391,27.344,-9.766
1586550747.429,-28.809,31.250,28.320,-5.859,20.020
1586550747.433,43.945,31.250,27.344,21.484,26.855
1586550747.437,127.441,32.715,26.855,69.336,58.594
1586550747.441,55.176,31.250,29.785,48.828,77.148
1586550747.445,-39.062,28.320,26.367,6.348,9.766
1586550747.449,2.930,26.855,22.461,11.230,-29.785
1586550747.453,105.957,29.785,25.879,49.316,60.547
1586550747.457,88.867,34.180,23.926,47.852,122.070
1586550747.461,-24.414,34.180,22.949,2.930,-24.414
1586550747.465,-20.996,31.738,25.879,2.930,-1.953
1586550747.469,75.195,31.250,26.367,46.387,125.000
1586550747.472,104.492,29.297,27.344,68.359,130.371
1586550747.476,-12.207,29.785,28.320,20.020,73.242
1586550747.480,-45.898,30.762,27.832,-6.836,31.738
1586550747.484,43.945,32.715,29.297,22.949,26.855
1586550747.488,114.746,31.250,29.297,53.711,20.996
1586550747.492,20.996,25.879,26.855,23.438,-23.438
1586550747.496,-48.340,28.320,28.809,-4.395,-24.414
1586550747.500,15.625,32.227,28.809,20.508,-15.625
1586550747.504,115.234,28.320,27.832,60.547,11.230
1586550747.508,62.988,27.832,31.738,45.898,33.691
1586550747.512,-42.969,27.832,31.250,-2.930,-14.160
1586550747.515,-13.184,26.855,27.344,0.977,1.465
1586550747.519,85.938,30.273,24.902,45.410,63.965
1586550747.523,84.473,32.715,25.391,50.781,20.508
1586550747.527,-21.973,35.645,30.273,8.789,22.461
1586550747.531,-21.484,32.227,34.180,0.488,56.641
1586550747.535,67.871,24.414,33.691,39.551,46.387
1586550747.539,107.910,28.320,33.203,62.988,15.137
1586550747.543,10.254,31.738,32.715,22.461,-17.090
1586550747.547,-34.668,31.738,29.785,-5.371,27.832
1586550747.551,36.133,31.250,30.273,23.926,79.590
1586550747.554,120.605,27.832,29.297,60.059,42.480
1586550747.558,47.363,32.715,28.809,32.715,16.602
1586550747.562,-31.250,34.668,28.809,1.465,26.367
1586550747.566,20.020,29.297,22.949,14.160,-4.883
1586550747.570,115.723,25.391,22.461,58.594,18.555
1586550747.574,68.848,25.879,22.461,55.664,51.758
1586550747.578,-38.086,28.809,20.996,3.418,39.551
1586550747.582,-10.742,28.809,23.926,0.977,-4.883
1586550747.586,87.402,26.855,25.391,46.387,-5.371
1586550747.590,91.797,28.320,25.391,59.570,59.570
1586550747.594,-21.973,28.809,28.320,15.625,41.504
1586550747.597,-32.715,29.297,25.879,2.441,0.000
1586550747.601,63.477,33.203,23.926,34.668,-14.160
1586550747.605,117.188,36.133,24.902,61.035,45.410
1586550747.609,13.184,35.645,26.367,22.949,40.039
1586550747.613,-46.387,32.715,26.367,-6.348,29.297
1586550747.617,30.762,33.203,24.902,23.926,29.297
1586550747.621,125.488,35.156,23.926,66.895,33.691
1586550747.625,47.852,32.715,24.902,45.410,68.359
1586550747.629,-36.133,30.762,23.438,4.395,90.820
1586550747.633,7.324,32.227,25.879,6.836,31.250
1586550747.637,110.840,32.227,26.367,50.293,88.867
1586550747.640,86.914,32.715,26.367,57.617,126.953
1586550747.644,-38.086,28.809,29.297,8.789,23.438
1586550747.648,-25.879,22.949,28.320,2.930,28.320
1586550747.652,80.566,27.832,21.973,46.387,94.238
1586550747.656,101.074,29.297,24.902,62.012,57.617
1586550747.660,-17.090,27.832,31.738,16.113,14.648
1586550747.664,-35.156,29.297,29.785,-4.395,-7.812
1586550747.668,62.500,27.832,28.320,26.367,-7.812
1586550747.672,121.094,29.297,28.320,60.059,36.621
1586550747.676,21.484,32.715,27.832,26.855,33.203
1586550747.679,-38.086,29.297,23.438,-7.812,0.977
1586550747.683,50.293,26.855,21.973,17.578,22.461
1586550747.687,150.391,28.809,24.414,60.059,29.785
1586550747.691,65.918,28.320,24.414,39.062,32.227
1586550747.695,-46.875,30.273,24.902,-2.930,63.477
1586550747.699,-16.602,31.250,26.855,5.859,39.551
1586550747.703,88.379,27.832,29.297,49.316,45.410
1586550747.707,72.266,28.320,28.320,50.293,78.125
1586550747.711,-48.340,31.250,25.879,8.789,28.809
1586550747.715,-43.945,31.738,27.832,2.930,6.348
1586550747.719,53.711,30.762,28.809,41.016,48.828
1586550747.722,96.680,31.250,28.320,62.500,53.711
1586550747.726,-12.207,28.809,30.273,23.438,8.789
1586550747.730,-53.711,28.320,30.273,0.000,10.254
1586550747.734,39.551,30.762,28.320,32.715,32.227
1586550747.738,115.723,31.250,28.320,75.195,54.199
1586550747.742,27.344,33.691,26.855,28.809,59.082
1586550747.746,-37.598,33.203,25.879,-10.254,14.160
1586550747.750,22.949,34.668,25.879,17.090,32.715
1586550747.754,116.211,34.180,25.391,60.547,63.477
1586550747.758,66.406,28.809,24.414,46.387,45.898
1586550747.762,-40.527,28.809,25.391,-3.418,20.508
1586550747.765,-17.090,31.250,26.367,3.906,-18.555
1586550747.769,90.820,29.785,26.855,57.617,14.160
1586550747.773,90.332,28.809,28.320,60.547,19.531
1586550747.777,-23.926,29.297,27.832,11.719,-34.668
1586550747.781,-20.508,29.297,27.344,4.883,-50.781
1586550747.785,78.125,30.273,30.273,46.387,-6.348
1586550747.789,126.953,30.273,30.762,71.289,77.637
1586550747.793,14.648,29.785,30.762,25.391,84.473
1586550747.797,-39.062,29.297,28.320,-5.371,-15.625
1586550747.801,41.016,29.785,25.879,29.297,-65.918
1586550747.804,114.258,30.762,26.855,70.801,19.531
1586550747.808,32.227,31.250,25.879,35.645,67.383
1586550747.812,-40.527,29.297,26.367,-6.836,-28.320
1586550747.816,12.695,27.832,25.879,10.742,-22.461
1586550747.820,112.793,28.320,22.949,54.688,101.074
1586550747.824,71.777,27.832,27.344,48.828,67.871
1586550747.828,-41.992,27.832,29.785,4.395,-1.465
1586550747.832,-22.461,27.344,26.367,8.301,58.594
1586550747.836,83.496,28.809,25.391,50.293,66.406
1586550747.840,101.074,31.738,29.297,55.664,41.504
1586550747.844,-16.602,29.785,28.320,7.324,41.504
1586550747.847,-33.203,28.809,22.949,-1.465,-16.602
1586550747.851,60.547,33.691,21.973,35.156,-20.996
1586550747.855,110.840,32.715,25.879,63.477,40.039
1586550747.859,12.207,32.227,25.879,23.438,46.875
1586550747.863,-38.574,35.645,24.414,-3.906,3.906
1586550747.867,30.273,33.203,27.832,23.926,-38.574
1586550747.871,122.559,32.227,27.344,61.035,-2.930
1586550747.875,57.129,34.180,28.809,37.109,46.875
1586550747.879,-40.527,31.250,30.273,0.977,67.383
1586550747.883,-2.441,26.367,28.320,20.996,23.926
1586550747.887,98.145,24.902,27.344,61.523,-2.441
1586550747.890,79.102,26.367,28.320,53.711,23.438
1586550747.894,-30.273,30.762,28.809,3.906,42.480
1586550747.898,-22.949,31.738,26.367,-4.883,31.738
1586550747.902,80.566,33.203,24.414,40.039,46.387
1586550747.906,99.609,31.738,22.949,58.105,59.082
1586550747.910,-12.695,29.297,25.391,10.742,36.621
1586550747.914,-32.715,32.715,26.367,-6.836,79.590
1586550747.918,52.246,31.250,27.344,27.832,61.035
1586550747.922,117.676,31.250,27.344,63.477,54.688
1586550747.926,20.508,32.715,26.367,27.832,28.809
1586550747.929,-43.945,32.227,24.902,-1.953,28.809
1586550747.933,27.832,31.738,23.438,25.879,99.121
1586550747.937,121.094,33.691,23.438,62.988,86.426
1586550747.941,59.082,37.109,22.461,38.086,43.945
1586550747.945,-41.992,33.691,24.414,-4.395,0.000
1586550747.949,-4.883,28.809,24.414,6.836,-21.484
1586550747.953,103.516,29.785,22.461,52.246,10.742
1586550747.957,97.168,30.762,26.367,59.082,45.898
1586550747.961,-21.973,31.250,28.320,13.184,23.926
1586550747.965,-13.672,31.250,23.926,6.836,-22.461
1586550747.969,85.449,31.250,25.391,46.387,10.742
1586550747.972,104.492,28.320,27.344,62.988,43.457
1586550747.976,-11.719,27.344,25.391,22.949,-9.766
1586550747.980,-43.945,29.297,25.879,-1.953,-44.434
1586550747.984,43.457,30.273,23.438,27.344,-59.570
1586550747.988,121.582,30.273,22.461,69.824,-9.766
1586550747.992,38.086,28.320,25.879,35.156,44.922
1586550747.996,-37.109,29.297,26.367,-10.254,28.809
1586550748.000,23.926,31.738,31.250,8.789,2.930
1586550748.004,112.793,26.855,30.273,59.082,64.941
1586550748.008,51.758,24.902,26.367,46.875,58.594
1586550748.012,-55.664,24.902,26.367,4.883,32.715
1586550748.015,-32.227,21.484,27.344,7.812,76.172
1586550748.019,74.219,20.020,27.344,42.480,17.090
1586550748.023,78.125,25.879,26.855,45.410,28.809
1586550748.027,-45.410,26.855,25.391,-2.441,57.617
1586550748.031,-57.617,25.391,25.391,-12.207,61.035
1586550748.035,44.434,29.785,23.438,28.809,62.988
1586550748.039,100.098,27.832,24.414,54.199,22.461
1586550748.043,-4.883,26.855,25.391,16.113,28.809
1586550748.047,-51.270,27.344,23.438,-4.883,28.320
1586550748.051,32.227,29.297,23.926,23.438,22.949
1586550748.054,120.117,31.250,21.973,65.918,64.941
1586550748.058,40.527,31.738,22.461,35.645,61.035
1586550748.062,-43.457,29.785,24.414,-7.812,-16.602
1586550748.066,15.625,29.785,24.902,15.625,-21.973
1586550748.070,120.117,28.809,25.879,56.641,32.715
1586550748.074,75.684,29.297,27.832,44.434,55.176
1586550748.078,-36.621,32.227,26.855,1.465,18.066
1586550748.082,-19.043,31.250,24.902,3.418,-4.395
1586550748.086,85.938,29.785,25.879,55.664,20.508
1586550748.090,108.887,32.715,24.902,70.801,60.059
1586550748.094,-0.488,32.715,25.879,23.438,42.969
1586550748.097,-26.855,31.250,25.391,4.883,24.414
1586550748.101,62.988,30.762,25.879,35.645,9.277
1586550748.105,123.535,33.203,27.832,64.941,27.344
1586550748.109,14.160,32.227,26.367,22.461,46.875
1586550748.113,-45.410,29.297,24.902,-9.277,-3.418
1586550748.117,24.414,32.715,26.367,13.672,4.395
1586550748.121,117.676,31.738,27.832,55.664,30.273
1586550748.125,52.246,27.832,29.785,33.691,-14.648
1586550748.129,-40.039,29.785,32.227,-7.812,-28.320
1586550748.133,4.395,29.785,29.785,6.836,18.555
1586550748.137,107.422,30.273,28.320,51.270,61.523
1586550748.140,76.660,28.809,27.832,50.781,69.824
1586550748.144,-44.922,26.855,25.879,2.930,-1.465
1586550748.148,-28.809,27.344,25.391,-1.465,-24.414
1586550748.152,74.707,25.879,23.926,45.410,0.000
1586550748.156,100.586,27.344,24.414,60.059,34.180
1586550748.160,-7.324,29.785,26.367,10.254,30.273
1586550748.164,-34.668,30.273,22.461,-1.465,41.504
1586550748.168,46.875,29.785,20.508,29.785,64.941
1586550748.172,124.023,24.902,26.367,59.082,85.449
1586550748.176,27.344,27.832,29.785,24.902,49.805
1586550748.179,-53.711,29.297,25.879,-7.812,9.766
1586550748.183,18.555,24.414,27.344,20.508,32.715
1586550748.187,122.070,27.832,30.762,61.523,60.547
1586550748.191,67.871,35.156,28.320,45.410,73.242
1586550748.195,-28.320,34.180,26.855,4.395,15.625
1586550748.199,4.395,33.691,27.344,13.672,-53.711
1586550748.203,111.328,36.133,25.391,60.059,15.137
1586550748.207,104.980,35.645,25.391,62.012,83.496
1586550748.211,-16.113,32.715,25.879,13.184,14.160
1586550748.215,-25.879,29.297,26.855,15.625,-37.109
1586550748.219,56.152,32.227,27.344,52.246,18.555
1586550748.222,92.285,33.691,26.367,48.340,63.965
1586550748.226,-2.930,34.180,26.367,6.348,12.695
1586550748.230,-37.109,37.598,25.391,-2.441,-21.973
1586550748.234,52.246,36.621,22.949,19.043,-36.133
1586550748.238,130.371,35.645,23.438,42.480,19.531
1586550748.242,26.367,35.645,25.879,22.461,58.105
1586550748.246,-56.152,30.762,25.391,-11.230,6.348
1586550748.250,3.418,25.879,23.926,6.836,40.527
1586550748.254,106.934,31.738,24.902,58.105,110.352
1586550748.258,67.383,37.598,23.926,54.688,126.465
1586550748.262,-41.992,32.715,23.438,9.766,102.051
1586550748.265,-19.043,31.738,23.438,8.301,54.688
1586550748.269,88.867,33.691,24.414,45.410,40.039
1586550748.273,96.680,32.715,25.391,52.734,83.008
1586550748.277,-15.625,33.691,25.879,6.836,33.203
1586550748.281,-20.996,32.715,28.320,-8.789,-8.301
1586550748.285,68.848,30.762,26.855,29.297,32.715
1586550748.289,118.164,34.668,27.832,59.082,98.145
1586550748.293,13.184,32.715,30.273,23.438,48.340
1586550748.297,-46.387,27.344,29.297,-9.277,-22.949
1586550748.301,28.320,28.320,28.320,5.859,-12.207
1586550748.304,114.746,28.320,24.414,54.199,46.875
1586550748.308,37.109,28.809,22.949,35.645,48.340
1586550748.312,-51.758,28.320,25.879,-9.766,29.785
1586550748.316,-1.953,28.320,28.809,6.348,56.152
1586550748.320,114.258,29.785,28.809,46.875,57.129
1586550748.324,82.520,28.809,27.832,40.039,51.758
1586550748.328,-40.039,28.320,30.762,-3.418,-0.977
1586550748.332,-27.344,28.320,30.273,-8.789,18.066
1586550748.336,68.359,25.391,29.785,32.715,78.613
1586550748.340,85.938,24.902,27.832,50.293,72.266
1586550748.344,-14.648,27.832,24.414,5.371,25.391
1586550748.347,-33.203,28.809,24.414,-10.254,14.648
1586550748.351,49.805,23.438,23.926,25.391,1.465
1586550748.355,109.863,24.414,23.926,54.688,52.246
1586550748.359,10.742,29.297,25.391,22.461,65.918
1586550748.363,-42.480,29.297,26.367,-4.883,15.625
1586550748.367,29.785,32.227,25.391,12.695,34.668
1586550748.371,111.816,32.715,26.367,58.105,66.406
1586550748.375,43.457,29.785,28.809,37.598,60.059
1586550748.379,-42.480,32.715,29.785,-4.883,8.789
1586550748.383,0.000,33.203,26.855,3.418,-13.184
1586550748.387,103.516,30.273,23.438,48.340,29.297
1586550748.390,86.426,30.762,27.832,53.711,50.293
1586550748.394,-31.250,29.297,30.273,10.254,30.273
1586550748.398,-27.832,24.902,28.320,9.277,44.922
1586550748.402,74.219,26.367,28.320,49.316,61.523
1586550748.406,107.422,29.297,27.832,65.918,78.125
1586550748.410,-9.766,30.273,28.320,19.043,43.945
1586550748.414,-40.039,32.227,31.738,7.812,44.922
1586550748.418,46.387,33.691,33.203,44.922,36.621
1586550748.422,109.863,30.273,29.785,66.895,16.113
1586550748.426,16.602,30.762,29.297,34.668,19.531
1586550748.429,-45.898,32.715,26.855,0.000,14.160
1586550748.433,15.137,29.297,24.414,19.531,-4.395
1586550748.437,108.887,28.320,23.438,69.824,53.711
1586550748.441,49.805,28.320,20.508,50.781,37.598
1586550748.445,-55.664,28.809,19.043,3.418,-20.020
1586550748.449,-10.742,26.855,21.973,16.602,38.574
1586550748.453,99.121,27.832,22.461,59.570,75.684
1586550748.457,94.238,32.227,22.949,62.500,83.984
1586550748.461,-19.531,36.133,20.996,17.578,15.625
1586550748.465,-20.996,37.109,21.484,10.742,-45.410
1586550748.469,69.824,28.320,29.297,46.387,7.812
1586550748.472,101.074,26.855,28.320,59.082,4.883
1586550748.476,-14.160,34.180,27.344,19.043,-25.391
1586550748.480,-53.711,36.133,27.832,0.977,27.832
1586550748.484,34.180,33.203,27.344,34.668,19.043
1586550748.488,110.840,33.203,25.879,72.266,22.461
1586550748.492,20.508,38.086,23.438,41.504,8.789
1586550748.496,-52.246,36.133,26.367,8.301,1.465
1586550748.500,1.953,31.738,24.414,24.902,10.254
1586550748.504,102.051,29.297,19.531,67.383,9.277
1586550748.508,58.105,29.297,22.461,52.734,41.504
1586550748.512,-50.781,26.367,30.273,6.348,32.227
1586550748.515,-24.902,24.414,32.227,13.184,-48.340
1586550748.519,83.008,28.809,26.855,60.547,58.594
1586550748.523,90.820,33.691,25.879,72.266,78.613
1586550748.527,-21.973,32.227,26.367,26.367,-41.016
1586550748.531,-24.414,29.297,26.855,9.277,-11.230
1586550748.535,81.055,32.227,28.809,44.922,18.555
1586550748.539,132.324,32.715,25.879,71.289,28.809
1586550748.543,15.625,29.785,24.414,31.738,9.766
1586550748.547,-43.457,27.832,29.297,5.371,-34.668
1586550748.551,33.203,28.809,31.250,38.574,-15.625
1586550748.554,121.094,28.809,31.250,81.543,35.645
1586550748.558,40.039,27.832,26.855,51.270,64.941
1586550748.562,-56.152,27.344,27.832,10.742,39.062
1586550748.566,-6.836,31.250,31.250,24.414,-8.301
1586550748.570,95.703,34.668,27.344,64.453,20.996
1586550748.574,59.082,29.785,27.344,54.688,30.762
1586550748.578,-47.363,29.785,26.367,7.324,-26.367
1586550748.582,-24.902,28.809,21.973,-0.488,-31.738
1586550748.586,79.102,24.902,20.020,38.574,20.020
1586550748.590,96.191,31.250,22.461,50.293,52.734
1586550748.594,-21.484,34.180,23.926,7.812,46.387
1586550748.597,-34.668,29.785,24.414,2.441,22.949
1586550748.601,53.711,30.762,24.414,36.133,39.551
1586550748.605,110.352,35.156,23.438,65.430,83.496
1586550748.609,18.555,36.133,22.949,31.738,40.039
1586550748.613,-40.039,35.645,25.391,-1.953,-15.137
1586550748.617,31.250,34.180,26.367,22.949,-0.977
1586550748.621,125.488,35.645,22.949,67.383,76.660
1586550748.625,48.828,37.598,22.949,50.293,93.750
1586550748.629,-45.410,33.203,23.438,3.418,-12.207
1586550748.633,-0.488,29.297,21.973,7.812,-73.730
1586550748.637,101.562,27.344,24.414,48.828,29.785
1586550748.640,80.566,29.297,24.414,43.945,59.082
1586550748.644,-34.180,30.273,22.949,1.953,49.805
1586550748.648,-23.926,30.273,24.902,3.418,12.695
1586550748.652,76.172,28.809,24.414,45.898,22.949
1586550748.656,105.469,25.391,24.902,65.918,48.340
1586550748.660,-2.441,30.762,26.855,22.949,-13.672
1586550748.664,-30.762,36.621,24.902,1.465,-16.602
1586550748.668,56.152,32.715,21.973,37.109,-1.953
1586550748.672,125.977,34.180,24.414,69.336,63.965
1586550748.676,35.156,37.598,27.832,24.902,73.242
1586550748.679,-35.156,32.227,26.855,-4.883,-21.973
1586550748.683,20.020,25.391,24.902,20.020,11.719
1586550748.687,107.422,23.926,24.414,62.500,109.863
1586550748.691,51.758,28.320,22.461,52.734,114.258
1586550748.695,-44.922,25.879,23.926,7.812,86.914
1586550748.699,-7.812,25.879,26.367,10.742,28.320
1586550748.703,100.586,24.902,24.902,55.176,20.020
1586550748.707,90.332,23.926,26.367,57.617,39.551
1586550748.711,-25.879,30.273,28.320,15.625,-17.578
1586550748.715,-29.297,32.715,28.320,6.348,-21.973
1586550748.719,72.266,31.738,25.391,38.086,-22.461
1586550748.722,114.258,33.203,21.973,57.617,17.090
1586550748.726,3.906,35.156,24.902,17.090,28.809
1586550748.730,-29.297,34.180,25.879,2.441,-40.039
1586550748.734,50.293,33.203,26.367,31.250,-47.363
1586550748.738,124.512,33.203,26.855,68.359,27.344
1586550748.742,43.457,33.691,26.855,41.992,35.645
1586550748.746,-32.715,31.250,25.879,3.418,22.461
1586550748.750,22.949,28.320,22.949,21.484,-8.301
1586550748.754,119.141,28.809,24.414,60.547,38.086
1586550748.758,70.801,30.273,27.344,51.758,81.543
1586550748.762,-39.062,27.344,28.320,7.324,19.531
1586550748.765,-18.066,22.949,28.320,4.883,-51.758
1586550748.769,83.984,28.809,27.344,48.340,-14.648
1586550748.773,89.355,33.203,27.832,56.152,53.223
1586550748.777,-25.879,30.762,31.250,11.719,21.973
1586550748.781,-29.785,30.762,32.715,0.000,5.859
1586550748.785,62.988,30.762,31.738,37.109,21.973
1586550748.789,110.352,31.250,29.785,64.941,85.449
1586550748.793,10.742,32.227,29.785,27.344,83.496
1586550748.797,-37.109,32.227,29.785,2.441,35.645
1586550748.801,36.133,31.738,27.832,28.320,67.871
1586550748.804,116.211,31.738,28.320,61.523,67.383
1586550748.808,41.992,34.668,27.344,34.668,38.086
1586550748.812,-46.387,34.668,26.367,-2.930,8.301
1586550748.816,-0.488,33.691,25.879,13.184,-15.625
1586550748.820,102.539,32.227,25.879,62.988,27.832
1586550748.824,67.383,29.297,30.762,50.293,37.598
1586550748.828,-39.551,29.297,31.250,0.488,21.973
1586550748.832,-19.043,27.832,27.832,6.836,-2.441
1586550748.836,75.684,25.391,25.879,44.922,39.062
1586550748.840,93.262,25.879,23.926,62.988,92.285
1586550748.844,-17.090,29.297,25.879,18.066,11.719
1586550748.847,-32.227,31.738,27.344,-6.348,22.461
1586550748.851,59.570,26.367,30.273,33.691,62.500
1586550748.855,106.445,22.949,29.785,64.453,64.453
1586550748.859,2.441,27.344,26.855,26.367,73.730
1586550748.863,-46.875,27.344,28.809,-2.441,41.504
1586550748.867,22.461,31.250,28.809,20.508,27.832
1586550748.871,111.816,32.715,26.367,63.965,62.012
1586550748.875,47.852,32.715,25.391,41.016,37.109
1586550748.879,-41.992,33.203,27.344,-4.883,-22.949
1586550748.883,3.906,32.715,26.855,11.230,38.574
1586550748.887,103.027,32.227,25.391,59.082,69.336
1586550748.890,82.031,31.250,27.344,59.082,46.875
1586550748.894,-28.809,31.738,28.320,11.230,21.484
1586550748.898,-26.367,32.715,28.809,1.953,-14.648
1586550748.902,75.684,33.691,27.832,46.875,4.883
1586550748.906,104.980,34.180,26.367,63.477,67.383
1586550748.910,-9.277,34.180,23.438,14.160,10.254
1586550748.914,-32.715,38.086,23.926,0.488,-28.320
1586550748.918,53.711,37.109,27.344,35.156,19.043
1586550748.922,128.418,34.668,26.367,68.848,66.895
1586550748.926,37.598,35.156,26.367,38.086,63.477
1586550748.929,-36.133,33.203,28.320,0.488,-38.086
1586550748.933,29.297,33.691,27.344,19.531,-45.410
1586550748.937,126.953,34.180,25.391,70.801,62.012
1586550748.941,71.289,34.180,24.414,50.293,65.430
1586550748.945,-40.527,35.156,24.902,-1.465,12.695
1586550748.949,-8.301,34.180,24.902,11.230,40.527
1586550748.953,102.539,33.203,24.414,55.176,92.285
1586550748.957,92.285,33.203,24.902,56.152,76.172
1586550748.961,-20.020,33.203,24.902,10.254,62.012
1586550748.965,-16.113,31.738,24.414,6.348,61.035
1586550748.969,72.266,31.250,20.020,43.945,34.180
1586550748.972,112.793,30.762,20.996,66.895,2.930
1586550748.976,11.230,28.320,23.926,18.555,-30.762
1586550748.980,-37.109,29.785,23.438,-7.324,8.789
1586550748.984,42.480,32.715,25.879,27.832,15.137
1586550748.988,120.605,29.297,29.785,68.359,59.082
1586550748.992,33.203,27.344,30.273,43.457,10.742
1586550748.996,-41.016,27.344,26.855,2.441,-41.016
1586550749.000,15.137,25.391,26.367,18.066,-13.184
1586550749.004,114.258,22.949,27.344,64.941,63.477
1586550749.008,68.848,23.438,27.344,52.246,69.336
1586550749.012,-41.992,27.344,27.832,4.395,44.434
1586550749.015,-16.602,32.227,29.297,10.742,45.410
1586550749.019,85.938,33.203,28.320,57.617,39.062
1586550749.023,95.703,31.738,26.367,58.594,62.500
1586550749.027,-20.508,32.227,26.855,13.672,-8.301
1586550749.031,-33.691,30.762,25.879,2.441,-25.391
1586550749.035,63.965,30.273,24.414,34.668,33.691
1586550749.039,107.422,29.785,25.391,65.430,58.594
1586550749.043,0.488,24.902,29.297,23.926,2.930
1586550749.047,-47.852,23.438,28.809,-4.883,-12.695
1586550749.051,27.344,27.832,24.902,25.391,8.301
1586550749.054,115.234,28.809,22.949,65.918,51.758
1586550749.058,46.387,29.785,24.414,42.969,37.598
1586550749.062,-37.598,31.738,28.809,0.000,-25.879
1586550749.066,4.395,29.297,30.762,19.043,-32.715
1586550749.070,99.609,28.809,27.832,60.547,30.273
1586550749.074,69.824,28.809,29.785,50.781,56.152
1586550749.078,-44.434,28.320,30.273,5.371,13.672
1586550749.082,-25.879,29.785,26.855,0.488,-9.277
1586550749.086,83.984,27.832,24.902,43.457,0.977
1586550749.090,93.262,28.809,25.879,59.570,5.859
1586550749.094,-27.832,31.738,27.344,15.137,55.176
1586550749.097,-36.621,32.227,25.879,-2.930,60.547
1586550749.101,61.035,30.762,27.344,29.785,-18.555
1586550749.105,114.258,30.762,26.855,58.105,-23.438
1586550749.109,9.277,32.227,26.367,17.578,-41.992
1586550749.113,-48.828,30.762,29.297,-9.766,-47.852
1586550749.117,16.113,30.762,27.344,14.648,8.789
1586550749.121,106.934,29.297,26.855,55.664,98.145
1586550749.125,41.504,28.809,28.809,37.109,34.668
1586550749.129,-50.781,30.762,27.344,-8.789,-70.801
1586550749.133,-4.883,23.926,28.320,-3.906,-6.836
1586550749.137,106.445,24.414,29.297,46.387,66.895
1586550749.140,88.379,33.203,27.832,51.270,75.195
1586550749.144,-38.574,33.203,28.320,-3.418,62.500
1586550749.148,-33.203,28.320,29.785,-7.324,25.391
1586550749.152,66.406,29.785,33.203,42.480,52.246
1586550749.156,95.703,30.762,35.156,64.941,58.594
1586550749.160,-13.184,28.809,34.180,17.090,64.453
1586550749.164,-43.945,30.762,29.785,-13.672,63.477
1586550749.168,46.387,31.250,28.320,22.461,44.922
1586550749.172,118.652,32.715,29.785,56.152,104.004
1586550749.176,24.414,32.715,27.832,19.531,56.641
1586550749.179,-52.246,29.297,27.832,-2.930,-24.902
1586550749.183,5.859,27.832,26.855,19.043,25.879
1586550749.187,111.328,28.320,24.902,63.477,88.867
1586550749.191,60.547,29.297,28.320,49.316,73.730
1586550749.195,-47.852,30.273,29.785,-2.930,9.766
1586550749.199,-20.020,29.785,30.762,4.395,-3.906
1586550749.203,87.891,30.273,29.785,53.711,23.926
1586550749.207,91.797,33.691,23.926,41.992,75.195
1586550749.211,-15.625,33.203,25.391,-8.789,38.574
1586550749.215,-20.996,31.250,24.414,3.418,-41.504
1586550749.219,69.824,34.180,29.785,42.969,-2.930
1586550749.222,110.352,28.809,38.086,60.547,76.660
1586550749.226,-1.953,21.484,36.133,17.578,60.547
1586550749.230,-47.852,23.926,34.668,-6.348,17.090
1586550749.234,38.086,24.902,33.691,30.762,28.320
1586550749.238,117.676,28.320,31.250,58.594,61.523
1586550749.242,36.133,31.738,28.809,29.785,71.777
1586550749.246,-36.621,29.297,31.738,-0.977,-9.277
1586550749.250,14.648,26.855,30.762,11.719,-57.617
1586550749.254,111.328,28.809,29.785,59.570,43.457
1586550749.258,63.965,29.297,33.203,54.688,71.289
1586550749.262,-45.410,26.855,31.250,3.906,-37.598
1586550749.265,-11.719,27.832,28.809,3.418,22.949
1586550749.269,97.656,29.785,28.809,46.875,111.328
1586550749.273,100.098,30.762,30.762,54.688,72.266
1586550749.277,-17.090,30.762,31.250,14.160,65.918
1586550749.281,-27.344,27.832,29.785,5.371,56.152
1586550749.285,65.918,25.391,29.785,40.039,75.684
1586550749.289,114.258,25.391,28.320,67.871,69.824
1586550749.293,8.789,29.297,29.297,30.273,34.668
1586550749.297,-43.457,32.715,28.320,1.465,29.785
1586550749.301,39.551,31.250,24.414,26.367,23.438
1586550749.304,126.953,25.879,22.949,67.383,21.973
1586550749.308,43.945,31.250,23.926,42.969,12.695
1586550749.312,-42.480,36.621,23.926,0.000,-21.973
1586550749.316,7.812,31.738,28.320,13.184,-38.574
1586550749.320,110.352,30.762,28.809,58.594,20.508
1586550749.324,75.195,35.156,25.391,53.223,42.969
1586550749.328,-37.598,38.574,26.367,6.836,45.898
1586550749.332,-23.438,38.086,28.320,8.789,50.781
1586550749.336,85.449,36.133,31.738,61.035,55.664
1586550749.340,106.934,34.668,32.227,75.195,37.598
1586550749.344,-13.672,33.691,29.785,15.625,27.344
1586550749.347,-39.062,31.250,27.344,-6.348,15.137
1586550749.351,46.875,29.785,28.809,31.250,-8.789
1586550749.355,113.281,30.762,29.297,62.012,11.230
1586550749.359,9.277,30.273,25.391,21.484,73.730
1586550749.363,-50.293,31.250,25.391,-12.695,63.965
1586550749.367,27.832,24.902,25.879,20.508,47.852
1586550749.371,114.746,21.973,24.414,69.336,48.828
1586550749.375,38.086,24.902,27.344,36.133,73.242
1586550749.379,-52.734,24.414,26.367,-16.602,40.527
1586550749.383,-7.324,26.855,24.902,3.906,-8.789
1586550749.387,89.844,26.855,28.320,51.758,41.504
1586550749.390,70.312,27.832,28.809,47.363,92.773
1586550749.394,-37.598,28.809,27.832,3.418,63.965
1586550749.398,-26.855,27.344,28.320,-1.953,-4.395
1586550749.402,76.172,28.320,28.809,42.480,8.301
1586550749.406,112.793,31.250,28.809,60.547,30.273
1586550749.410,-4.883,32.715,30.273,10.254,19.043
1586550749.414,-39.062,33.691,29.297,-10.254,26.367
1586550749.418,36.621,33.203,26.367,24.902,24.414
1586550749.422,107.422,30.762,23.926,62.012,47.363
1586550749.426,22.461,26.367,24.902,24.902,-1.465
1586550749.429,-49.805,25.879,24.414,-15.137,-13.184
1586550749.433,15.625,32.227,20.020,9.277,10.742
1586550749.437,108.887,31.738,20.996,52.734,46.875
1586550749.441,56.641,31.738,24.414,35.645,92.285
1586550749.445,-29.297,35.156,24.902,-5.859,15.137
1586550749.449,7.812,33.203,24.414,-3.418,-28.809
1586550749.453,104.004,31.738,22.461,40.527,29.785
1586550749.457,99.121,32.715,20.996,53.223,48.340
1586550749.461,-19.531,28.320,19.531,7.324,14.648
1586550749.465,-21.973,31.250,21.973,-0.977,-6.348
1586550749.469,74.219,34.668,25.879,38.086,13.184
1586550749.472,117.188,29.297,26.367,69.336,77.637
1586550749.476,7.812,31.250,25.391,31.738,55.176
1586550749.480,-38.574,35.645,23.926,3.906,21.484
1586550749.484,41.504,35.156,24.902,30.273,68.359
1586550749.488,117.676,31.250,24.414,62.988,72.266
1586550749.492,39.551,29.785,24.414,33.691,42.969
1586550749.496,-36.621,28.809,26.855,-2.930,22.949
1586550749.500,14.160,26.855,28.809,14.648,40.527
1586550749.504,108.398,26.855,26.367,50.781,38.086
1586550749.508,65.430,27.832,27.344,41.016,15.137
1586550749.512,-45.898,30.273,30.273,1.465,20.508
1586550749.515,-21.973,29.785,30.273,1.953,51.270
1586550749.519,88.379,31.738,27.832,40.039,87.891
1586550749.523,93.262,34.668,27.344,52.734,35.156
1586550749.527,-26.367,34.180,29.297,5.371,21.484
1586550749.531,-33.203,35.645,27.832,-8.789,46.387
1586550749.535,57.129,35.156,27.832,32.715,41.992
1586550749.539,108.398,34.668,28.809,57.617,45.410
1586550749.543,8.301,31.250,25.391,18.066,28.320
1586550749.547,-45.410,29.785,22.949,-5.859,24.902
1586550749.551,27.344,36.133,23.926,14.648,54.688
1586550749.554,115.723,37.598,25.391,54.199,72.754
1586550749.558,42.969,34.668,26.855,36.133,19.531
1586550749.562,-44.922,35.156,24.902,-1.465,-20.508
1586550749.566,9.766,34.668,26.367,14.648,-12.695
1586550749.570,115.723,32.715,30.762,61.035,0.000
1586550749.574,79.590,32.227,33.691,62.988,24.902
1586550749.578,-28.320,33.691,33.691,15.137,63.965
1586550749.582,-0.977,34.668,28.809,14.648,44.922
1586550749.586,100.098,34.668,27.344,50.293,23.438
1586550749.590,119.141,34.668,29.785,62.988,50.781
1586550749.594,5.371,33.203,31.250,23.926,44.922
1586550749.597,-22.949,32.227,29.785,9.766,-21.484
1586550749.601,62.012,31.738,29.297,47.852,-15.625
1586550749.605,115.234,28.809,31.738,75.684,11.230
1586550749.609,17.578,28.320,32.715,35.156,-21.484
1586550749.613,-43.457,32.227,32.715,-1.953,-7.324
1586550749.617,24.414,33.203,32.715,21.973,3.906
1586550749.621,125.000,33.691,32.227,67.383,7.812
1586550749.625,60.059,32.227,26.855,44.434,28.320
1586550749.629,-43.945,31.250,24.414,0.977,26.855
1586550749.633,0.977,31.738,26.367,10.254,-34.180
1586550749.637,103.516,28.320,29.785,48.340,-6.348
1586550749.640,79.590,27.344,34.668,53.223,20.508
1586550749.644,-33.691,30.762,30.762,5.371,-3.418
1586550749.648,-19.043,32.715,29.785,-3.418,-9.766
1586550749.652,81.055,27.832,34.180,39.551,53.711
1586550749.656,112.793,25.391,32.227,60.547,133.789
1586550749.660,-1.465,27.344,28.320,17.090,65.430
1586550749.664,-43.457,30.762,27.344,-9.766,35.156
1586550749.668,43.457,37.109,27.344,27.344,72.754
1586550749.672,112.793,36.133,29.297,62.500,100.586
1586550749.676,13.184,33.691,28.809,18.066,71.289
1586550749.679,-56.641,34.180,27.344,-12.695,27.832
1586550749.683,11.230,33.203,28.320,14.160,-1.953
1586550749.687,111.328,31.250,28.320,52.246,44.434
1586550749.691,52.246,32.715,26.367,39.551,83.496
1586550749.695,-51.758,31.738,30.762,-2.441,53.711
1586550749.699,-15.625,28.320,33.203,2.441,30.762
1586550749.703,95.215,26.855,31.250,54.688,13.672
1586550749.707,89.355,29.297,30.762,59.082,80.078
1586550749.711,-31.738,33.203,29.297,4.883,32.715
1586550749.715,-30.273,32.715,27.832,-1.465,-18.555
1586550749.719,67.871,34.180,25.391,41.016,79.590
1586550749.722,113.281,33.691,25.879,66.406,117.188
1586550749.726,1.465,33.691,29.297,23.438,10.742
1586550749.730,-39.551,33.691,27.832,4.395,-22.949
1586550749.734,45.410,34.180,25.879,31.250,21.484
1586550749.738,127.441,34.180,25.391,70.801,72.754
1586550749.742,50.293,32.715,25.391,48.828,94.238
1586550749.746,-41.016,31.250,28.320,-0.977,71.289
1586550749.750,6.836,28.809,27.344,10.254,37.109
1586550749.754,113.281,30.273,24.414,51.758,19.531
1586550749.758,74.707,34.668,21.973,41.504,20.020
1586550749.762,-39.551,35.156,20.508,-1.953,-24.902
1586550749.765,-14.160,36.621,24.414,2.930,-40.039
1586550749.769,93.262,34.180,24.902,46.387,24.414
1586550749.773,107.910,31.250,27.832,58.105,83.984
1586550749.777,-9.277,29.785,29.785,17.578,34.180
1586550749.781,-34.180,29.785,28.320,4.395,-0.977
1586550749.785,61.523,33.203,27.344,36.621,15.625
1586550749.789,117.188,36.621,26.367,62.012,80.566
1586550749.793,9.766,36.133,28.320,29.785,63.477
1586550749.797,-46.875,32.227,26.367,3.906,42.480
1586550749.801,20.508,34.180,25.391,23.926,24.414
1586550749.804,116.211,35.156,27.832,61.035,31.738
1586550749.808,48.340,36.621,27.344,38.086,90.820
1586550749.812,-41.504,35.645,31.738,1.953,69.824
1586550749.816,0.488,29.297,32.227,16.113,23.926
1586550749.820,93.750,27.344,26.855,53.223,31.738
1586550749.824,71.777,28.809,25.879,47.852,47.852
1586550749.828,-34.180,27.832,33.203,6.836,48.828
1586550749.832,-18.555,26.855,40.527,13.672,40.039
1586550749.836,84.473,30.273,39.062,55.176,55.664
1586550749.840,106.934,31.738,34.668,65.918,41.504
1586550749.844,-12.207,33.691,33.203,20.996,-18.066
1586550749.847,-27.832,37.109,33.691,6.348,-8.789
1586550749.851,67.871,35.156,34.180,44.922,45.410
1586550749.855,121.582,33.203,32.715,79.102,62.012
1586550749.859,24.414,33.203,34.668,44.434,33.203
1586550749.863,-43.945,35.156,34.180,10.254,19.043
1586550749.867,20.508,35.156,32.227,32.227,30.762
1586550749.871,119.629,33.691,30.762,69.336,61.035
1586550749.875,58.105,32.715,26.367,41.992,41.992
1586550749.879,-33.203,33.203,27.344,-1.465,2.930
1586550749.883,0.000,33.691,26.855,9.766,-16.113
1586550749.887,106.445,34.180,24.414,56.641,-11.719
1586550749.890,96.680,35.645,24.902,50.293,17.090
1586550749.894,-25.879,35.156,29.297,0.000,-33.691
1586550749.898,-24.414,35.156,34.668,10.254,-29.297
1586550749.902,82.031,36.133,35.156,52.734,-21.973
1586550749.906,115.723,33.691,33.691,63.965,-26.855
1586550749.910,-5.859,32.715,28.320,24.414,11.719
1586550749.914,-40.039,29.785,26.855,3.418,83.984
1586550749.918,51.270,25.391,33.691,35.645,104.492
1586550749.922,125.000,24.902,33.691,70.801,18.066
1586550749.926,30.762,25.391,34.668,39.551,11.230
1586550749.929,-48.340,24.902,34.668,2.441,5.859
1586550749.933,7.812,26.367,31.250,19.531,-25.879
1586550749.937,104.980,24.414,30.273,64.453,47.363
1586550749.941,56.152,22.461,31.738,53.711,84.473
1586550749.945,-41.992,26.367,33.203,9.766,18.066
1586550749.949,-15.625,27.832,33.203,13.672,-31.738
1586550749.953,87.891,27.344,30.762,50.293,-22.461
1586550749.957,92.285,28.809,31.250,53.223,-9.766
1586550749.961,-12.207,33.203,33.691,12.207,27.344
1586550749.965,-18.066,31.250,26.855,0.000,11.719
1586550749.969,70.801,29.297,22.949,39.551,-10.742
1586550749.972,114.746,34.668,27.344,55.176,43.457
1586550749.976,5.859,37.598,29.297,9.277,20.508
1586550749.980,-36.621,38.574,27.344,-6.348,2.441
1586550749.984,42.969,37.598,24.902,21.973,25.391
1586550749.988,119.629,34.668,27.344,54.199,61.523
1586550749.992,39.551,35.156,31.250,25.879,38.086
1586550749.996,-46.387,35.156,30.762,-5.371,-11.719
1586550750.000,13.184,33.691,31.250,17.578,63.477
1586550750.004,119.629,34.668,32.715,63.477,114.258
1586550750.008,73.730,34.180,31.738,51.270,100.586
1586550750.012,-36.621,30.762,33.691,8.301,48.340
1586550750.015,-12.207,27.832,35.156,18.555,-34.180
1586550750.019,95.215,29.785,32.227,57.617,18.066
1586550750.023,107.910,27.832,32.715,63.965,68.848
1586550750.027,-13.672,20.508,32.227,22.949,35.645
1586550750.031,-34.180,20.996,32.227,10.742,28.809
1586550750.035,53.223,23.438,34.180,45.898,50.781
1586550750.039,104.980,22.461,32.227,68.359,63.477
1586550750.043,0.000,22.949,31.250,22.461,9.277
1586550750.047,-53.711,22.949,32.715,0.000,2.930
1586550750.051,14.648,26.367,30.762,29.785,42.480
1586550750.054,101.562,30.762,28.320,60.547,83.008
1586550750.058,38.574,34.180,27.832,40.527,61.035
1586550750.062,-42.969,36.621,27.344,-4.883,37.598
1586550750.066,8.789,36.133,25.391,2.930,11.230
1586550750.070,113.281,37.109,24.902,50.781,24.414
1586550750.074,77.637,34.668,25.391,45.410,55.664
1586550750.078,-40.039,34.180,24.414,5.859,12.695
1586550750.082,-20.508,43.457,23.438,7.324,-54.688
1586550750.086,80.566,42.480,23.438,40.039,-21.973
1586550750.090,97.656,38.086,24.414,51.270,36.133
1586550750.094,-19.531,37.598,28.320,9.277,2.930
1586550750.097,-37.598,36.133,27.832,-10.254,0.488
1586550750.101,59.082,37.109,24.414,27.344,1.953
1586550750.105,129.395,40.039,25.391,63.477,53.223
1586550750.109,28.320,37.109,28.320,26.855,88.867
1586550750.113,-45.410,32.715,27.832,-7.812,-15.137
1586550750.117,24.414,32.227,25.879,12.207,-28.320
1586550750.121,121.094,31.250,27.344,56.641,43.945
1586550750.125,59.082,28.320,28.809,43.945,32.715
1586550750.129,-37.598,26.367,28.809,0.488,33.691
1586550750.133,-5.371,23.926,28.320,10.742,33.691
1586550750.137,93.750,25.879,27.344,64.453,-1.953
1586550750.140,78.613,28.809,28.320,57.617,-29.785
1586550750.144,-39.551,30.273,29.297,0.000,5.371
1586550750.148,-27.344,30.273,26.855,2.441,61.035
1586550750.152,78.613,30.273,26.855,48.340,33.203
1586550750.156,113.770,34.180,30.273,65.918,65.430
1586550750.160,-7.324,36.133,27.344,19.531,57.617
1586550750.164,-35.645,33.691,25.391,-0.977,37.109
1586550750.168,55.176,33.203,27.344,36.133,27.344
1586550750.172,121.582,34.668,26.367,65.430,21.973
1586550750.176,29.297,34.180,26.855,26.367,-3.418
1586550750.179,-47.363,30.762,26.855,-12.207,-36.133
1586550750.183,12.207,30.762,26.855,9.277,17.090
1586550750.187,108.887,35.645,28.320,57.129,55.664
1586550750.191,66.406,35.645,30.762,39.551,32.715
1586550750.195,-33.203,35.156,31.250,-5.859,36.621
1586550750.199,-13.672,40.527,25.879,-1.465,43.457
1586550750.203,85.938,41.016,22.949,41.504,40.527
1586550750.207,92.285,35.156,24.902,48.828,61.523
1586550750.211,-22.461,38.574,25.391,-0.977,26.855
1586550750.215,-27.832,40.039,22.461,-11.719,27.832
1586550750.219,64.941,34.668,23.926,25.879,43.945
1586550750.222,102.539,32.715,27.344,51.758,35.156
1586550750.226,-3.906,34.180,28.320,14.648,29.785
1586550750.230,-43.457,33.691,29.297,-0.977,27.344
1586550750.234,35.156,30.762,29.785,30.762,54.688
1586550750.238,118.652,28.320,25.879,68.848,81.055
1586550750.242,34.180,28.809,23.438,44.434,22.949
1586550750.246,-56.641,29.785,24.902,6.836,-0.977
1586550750.250,8.301,31.250,25.391,18.555,46.875
1586550750.254,121.094,38.086,24.414,59.082,94.727
1586550750.258,76.660,41.016,26.367,53.711,49.316
1586550750.262,-28.809,38.574,23.438,3.418,-10.254
1586550750.265,-14.648,38.086,20.996,0.000,8.301
1586550750.269,74.219,38.574,26.367,41.016,54.688
1586550750.273,89.844,39.062,29.297,48.340,60.547
1586550750.277,-21.973,41.504,28.320,2.441,36.621
1586550750.281,-29.785,39.062,25.879,-15.625,14.160
1586550750.285,65.430,36.621,22.949,21.484,-15.137
1586550750.289,109.375,34.668,23.438,49.805,27.344
1586550750.293,1.953,32.227,27.344,13.672,23.438
1586550750.297,-56.641,30.762,26.855,-11.230,-2.930
1586550750.301,18.066,25.879,23.926,13.184,21.973
1586550750.304,116.699,25.879,26.367,57.129,68.359
1586550750.308,51.758,28.320,27.344,34.668,90.332
1586550750.312,-41.016,24.902,28.809,-8.789,20.508
1586550750.316,2.441,28.809,29.297,6.836,-47.363
1586550750.320,104.980,34.668,28.320,52.246,-5.859
1586550750.324,63.477,32.227,31.250,52.246,23.438
1586550750.328,-50.781,28.809,28.320,8.301,-16.602
1586550750.332,-25.391,32.227,24.902,8.301,31.738
1586550750.336,75.195,34.668,27.344,52.734,68.848
1586550750.340,104.004,32.715,29.297,69.824,21.973
1586550750.344,-9.766,31.738,26.855,23.926,24.414
1586550750.347,-41.016,31.738,24.414,-0.977,76.660
1586550750.351,57.129,35.645,27.344,29.297,45.410
1586550750.355,119.141,40.039,26.367,60.547,46.875
1586550750.359,9.277,39.551,25.391,20.996,29.297
1586550750.363,-52.734,38.086,24.902,-13.184,-11.230
1586550750.367,16.113,34.668,24.902,6.836,4.395
1586550750.371,106.934,34.180,27.832,48.828,44.434
1586550750.375,47.363,39.062,27.832,34.668,62.012
1586550750.379,-44.434,40.039,27.832,-1.465,50.293
1586550750.383,-5.859,37.598,30.762,8.789,48.340
1586550750.387,94.727,35.156,27.832,52.734,47.852
1586550750.390,81.543,33.203,26.855,53.711,71.289
1586550750.394,-30.273,32.227,28.320,3.418,53.711
1586550750.398,-28.320,33.203,29.785,1.953,-2.930
1586550750.402,74.707,32.715,29.785,46.387,4.395
1586550750.406,113.281,34.668,27.344,63.477,35.645
1586550750.410,-0.977,36.621,31.250,21.484,38.086
1586550750.414,-37.109,32.715,35.156,0.488,17.090
1586550750.418,51.270,29.785,31.738,33.691,21.973
1586550750.422,137.207,29.785,30.273,67.871,5.859
1586550750.426,47.363,32.227,30.762,34.180,-19.531
1586550750.429,-46.875,33.691,27.832,-4.883,-11.230
1586550750.433,5.371,32.715,25.879,18.555,11.230
1586550750.437,111.816,34.180,27.832,65.430,46.387
1586550750.441,69.336,35.156,28.809,48.340,56.152
1586550750.445,-42.969,31.738,30.273,7.812,15.625
1586550750.449,-20.996,27.832,32.715,16.113,18.555
1586550750.453,84.473,28.320,30.273,48.340,73.242
1586550750.457,84.961,31.738,24.414,53.711,47.852
1586550750.461,-29.785,34.180,28.809,15.137,50.781
1586550750.465,-33.203,34.668,33.691,2.930,42.969
1586550750.469,66.406,35.156,30.762,40.039,-23.438
1586550750.472,114.258,37.109,26.855,65.918,62.500
1586550750.476,8.301,37.109,27.344,26.367,79.102
1586550750.480,-39.551,36.621,29.785,2.930,-40.039
1586550750.484,38.574,36.621,30.273,27.832,-11.230
1586550750.488,122.070,35.645,27.832,60.547,49.316
1586550750.492,37.598,32.227,29.297,36.133,29.785
1586550750.496,-50.293,29.785,29.297,-4.395,-52.734
1586550750.500,-0.977,28.320,25.879,0.977,-54.688
1586550750.504,98.145,26.855,23.438,43.457,23.438
1586550750.508,67.383,29.785,22.949,38.086,6.836
1586550750.512,-43.945,31.250,22.461,-2.441,-13.184
1586550750.515,-15.625,29.297,21.484,-0.977,5.371
1586550750.519,93.262,28.320,20.508,37.598,3.906
1586550750.523,100.586,29.297,20.996,48.828,33.691
1586550750.527,-11.230,29.297,22.949,5.859,-3.418
1586550750.531,-25.391,30.762,22.949,-4.395,-7.324
1586550750.535,59.570,34.180,21.484,33.203,56.152
1586550750.539,118.164,29.785,16.113,62.012,84.473
1586550750.543,22.461,25.879,18.066,20.996,82.520
1586550750.547,-42.969,31.250,22.461,-13.672,42.480
1586550750.551,28.320,32.227,21.973,13.672,15.625
1586550750.554,116.699,29.785,24.414,58.594,52.246
1586550750.558,44.922,29.297,28.320,36.133,66.895
1586550750.562,-48.828,30.273,28.809,-4.395,20.508
1586550750.566,-11.719,30.762,25.879,10.254,6.836
1586550750.570,96.191,33.691,22.461,57.617,67.383
1586550750.574,77.637,35.156,20.996,49.316,68.848
1586550750.578,-27.832,32.227,23.926,3.418,30.273
1586550750.582,-14.648,32.227,24.414,3.418,-10.254
1586550750.586,72.754,32.227,20.508,45.410,15.137
1586550750.590,93.750,31.738,21.484,58.105,88.379
1586550750.594,-13.184,36.133,24.414,9.277,31.250
1586550750.597,-38.574,34.668,23.438,-5.859,19.531
1586550750.601,44.434,30.273,24.414,31.738,6.836
1586550750.605,107.422,29.785,28.809,64.941,8.789
1586550750.609,11.230,28.809,31.738,27.344,23.438
1586550750.613,-56.641,26.855,26.855,-0.977,3.906
1586550750.617,15.137,30.762,24.902,19.043,0.488
1586550750.621,123.535,29.785,24.414,60.547,26.855
1586550750.625,56.152,24.414,23.438,40.039,70.801
1586550750.629,-48.340,27.832,26.855,-9.277,44.922
1586550750.633,-5.371,30.273,28.320,0.977,-15.137
1586550750.637,94.238,29.297,28.320,44.434,36.621
1586550750.640,78.125,27.344,28.809,48.828,37.598
1586550750.644,-29.785,27.832,29.785,2.441,-28.320
1586550750.648,-32.227,27.344,29.785,-3.906,-65.430
1586550750.652,61.523,29.785,25.391,37.598,-45.898
1586550750.656,105.469,29.785,26.855,65.918,38.574
1586550750.660,-5.859,23.926,28.809,24.902,34.668
1586550750.664,-40.527,27.832,26.367,-3.418,5.371
1586550750.668,41.016,31.250,27.344,26.367,36.621
1586550750.672,107.910,27.344,20.996,57.129,58.105
1586550750.676,20.020,27.832,19.043,20.996,22.949
1586550750.679,-55.176,28.809,26.367,-12.207,38.086
1586550750.683,-0.488,25.879,28.320,7.324,45.410
1586550750.687,100.098,23.438,26.855,50.293,47.363
1586550750.691,57.129,26.855,27.344,40.527,33.203
1586550750.695,-40.527,26.855,27.832,-2.930,-62.012
1586550750.699,-11.719,22.949,25.391,2.930,-50.293
1586550750.703,84.961,27.344,26.855,44.922,19.043
1586550750.707,90.332,28.320,23.438,47.852,43.457
1586550750.711,-22.949,23.926,20.020,7.324,32.715
1586550750.715,-29.297,30.273,21.973,1.953,2.441
1586550750.719,63.477,34.668,25.391,34.668,7.324
1586550750.722,111.816,33.203,27.832,61.035,60.059
1586550750.726,11.230,33.203,31.738,27.832,45.410
1586550750.730,-31.738,30.762,33.203,-1.953,11.719
1586550750.734,45.898,30.762,31.250,21.484,-7.812
1586550750.738,125.977,33.691,28.809,62.012,41.992
1586550750.742,41.016,32.227,26.855,35.645,71.289
1586550750.746,-43.945,31.250,30.273,-3.906,31.738
1586550750.750,15.137,34.180,26.855,15.137,14.160
1586550750.754,111.816,32.715,25.391,59.082,58.105
1586550750.758,76.660,34.668,29.785,54.688,58.594
1586550750.762,-27.344,33.203,27.344,7.324,7.324
1586550750.765,-13.184,28.320,29.785,3.418,6.836
1586550750.769,86.914,30.273,30.273,48.828,29.785
1586550750.773,96.191,32.715,27.832,58.594,71.777
1586550750.777,-22.949,30.762,30.273,10.742,69.824
1586550750.781,-32.227,28.809,30.273,-2.930,10.254
1586550750.785,58.594,31.250,28.320,33.203,-10.742
1586550750.789,109.863,31.738,22.949,62.012,7.324
1586550750.793,14.160,26.855,25.391,24.414,26.367
1586550750.797,-35.645,30.762,25.879,-7.812,13.184
1586550750.801,36.133,36.133,25.879,19.531,4.395
1586550750.804,123.047,34.668,31.738,62.012,72.754
1586550750.808,58.594,32.227,34.180,44.922,66.406
1586550750.812,-43.945,31.250,33.203,8.789,-5.859
1586550750.816,-6.836,33.203,31.250,16.113,-0.488
1586550750.820,101.562,32.227,30.762,59.082,63.965
1586550750.824,82.520,29.297,31.738,53.711,53.711
1586550750.828,-26.855,26.855,31.250,7.812,15.137
1586550750.832,-21.484,27.344,30.273,0.977,1.953
1586550750.836,67.383,28.320,27.832,36.621,24.414
1586550750.840,96.680,30.762,27.344,60.059,125.977
1586550750.844,-8.301,34.668,27.344,16.113,95.703
1586550750.847,-35.156,34.668,25.879,-5.371,21.484
1586550750.851,51.758,31.738,23.438,28.320,29.785
1586550750.855,121.582,33.203,23.438,63.965,35.156
1586550750.859,26.367,34.668,26.855,33.691,7.324
1586550750.863,-43.457,32.715,28.809,-1.953,-25.391
1586550750.867,21.973,31.250,26.855,14.648,-18.555
1586550750.871,110.352,28.320,27.344,55.664,7.324
1586550750.875,52.734,29.785,27.344,41.016,-5.371
1586550750.879,-39.551,33.691,22.461,2.441,-11.719
1586550750.883,-9.277,32.715,24.414,4.395,36.133
1586550750.887,95.703,31.738,28.809,44.922,32.715
1586550750.890,86.426,31.738,27.832,53.223,30.762
1586550750.894,-34.180,28.320,28.809,3.906,-1.465
1586550750.898,-31.738,25.879,30.762,-5.859,2.930
1586550750.902,64.453,27.344,29.785,34.668,75.684
1586550750.906,100.098,28.809,30.762,59.570,81.543
1586550750.910,-3.906,28.809,30.762,19.043,33.691
1586550750.914,-39.062,29.785,26.367,-1.953,53.711
1586550750.918,41.992,30.762,23.926,26.855,72.754
1586550750.922,109.375,31.250,21.973,62.500,36.621
1586550750.926,24.414,31.250,25.879,33.691,9.766
1586550750.929,-46.387,28.809,26.367,-8.301,0.000
1586550750.933,14.160,28.320,22.461,7.324,7.812
1586550750.937,119.629,30.762,23.438,56.152,79.102
1586550750.941,72.754,30.273,27.344,48.828,100.098
1586550750.945,-31.250,32.715,26.855,-1.465,12.695
1586550750.949,-9.277,35.156,20.508,-0.488,-31.250
1586550750.953,87.402,34.668,15.137,48.340,4.883
1586550750.957,95.703,31.250,20.996,57.129,-0.977
1586550750.961,-18.066,29.297,29.297,12.695,11.719
1586550750.965,-31.738,27.344,27.832,3.906,22.461
1586550750.969,66.406,26.367,26.367,40.527,16.113
1586550750.972,125.000,30.273,26.367,65.918,55.176
1586550750.976,21.484,32.715,24.414,24.414,30.762
1586550750.980,-37.598,29.297,22.949,0.977,-41.992
1586550750.984,27.832,26.855,24.902,28.320,-62.500
1586550750.988,109.375,27.832,25.879,65.430,4.883
1586550750.992,34.668,26.855,25.879,44.922,64.453
1586550750.996,-41.992,27.832,24.902,3.418,30.273
1586550751.000,12.207,28.320,26.367,14.160,-0.977
1586550751.004,112.793,30.273,23.926,59.570,35.645
1586550751.008,77.148,29.785,24.902,53.223,39.551
1586550751.012,-42.969,25.391,28.320,5.371,24.414
1586550751.015,-25.879,27.344,25.879,6.348,-11.719
1586550751.019,90.332,32.227,26.367,57.129,-25.879
1586550751.023,110.840,31.738,26.367,72.754,78.613
1586550751.027,-5.859,31.250,26.367,17.578,70.801
1586550751.031,-26.367,29.785,29.785,-4.883,73.242
1586550751.035,68.848,26.367,31.738,35.156,73.730
1586550751.039,124.023,26.855,30.762,64.941,40.039
1586550751.043,13.672,27.832,25.879,25.879,7.812
1586550751.047,-43.457,27.344,24.902,-4.883,27.832
1586550751.051,32.715,27.832,26.367,16.602,39.551
1586550751.054,123.047,31.738,25.879,57.129,63.965
1586550751.058,56.152,36.621,27.832,36.133,44.922
1586550751.062,-36.621,33.691,26.855,-3.906,7.812
1586550751.066,7.324,29.785,27.344,13.184,10.742
1586550751.070,113.770,31.738,25.391,57.617,21.973
1586550751.074,87.402,34.180,24.414,49.316,22.949
1586550751.078,-32.715,33.691,26.855,-0.488,15.625
1586550751.082,-18.555,30.273,27.344,-3.906,-38.574
1586550751.086,81.055,27.344,27.832,35.156,-36.133
1586550751.090,104.492,25.879,28.809,55.176,48.828
1586550751.094,-3.418,26.367,25.879,12.695,-1.953
1586550751.097,-25.879,34.180,25.879,0.488,-8.789
1586550751.101,59.570,36.133,28.320,35.156,37.109
1586550751.105,119.141,27.344,23.926,58.105,44.922
1586550751.109,24.902,28.320,22.461,27.832,83.496
1586550751.113,-51.758,31.250,24.414,-6.348,52.246
1586550751.117,11.230,25.391,24.902,11.719,6.348
1586550751.121,107.910,27.344,23.438,55.176,59.570
1586550751.125,46.387,29.297,25.391,37.598,66.895
1586550751.129,-52.734,27.344,24.414,-5.859,-57.129
1586550751.133,-11.719,28.809,17.090,6.836,-43.945
1586550751.137,97.168,29.297,20.020,55.176,93.750
1586550751.140,91.797,29.297,30.273,59.082,47.363
1586550751.144,-14.648,32.715,32.227,15.137,-9.766
1586550751.148,-15.137,31.250,28.320,11.230,39.551
1586550751.152,79.590,28.809,28.809,46.387,55.664
1586550751.156,119.629,32.227,30.273,69.824,93.262
1586550751.160,6.836,34.180,28.809,26.855,77.637
1586550751.164,-36.133,33.203,24.902,-3.418,70.801
1586550751.168,44.922,30.273,27.832,31.738,29.785
1586550751.172,124.023,30.273,30.273,66.406,7.324
1586550751.176,40.039,34.180,29.785,29.785,29.785
1586550751.179,-39.551,32.227,29.785,-5.859,3.906
1586550751.183,12.207,22.461,29.297,14.648,-40.527
1586550751.187,110.352,21.484,27.344,58.105,22.461
1586550751.191,68.848,28.809,27.832,41.992,78.613
1586550751.195,-39.062,31.250,28.320,-4.883,29.785
1586550751.199,-14.648,31.250,22.949,5.371,24.414
1586550751.203,86.914,26.367,23.438,50.781,77.637
1586550751.207,98.145,24.414,27.832,62.500,71.777
1586550751.211,-20.020,25.879,25.879,14.160,18.555
1586550751.215,-33.691,26.855,24.902,5.371,-14.648
1586550751.219,66.406,29.297,24.902,41.992,-7.812
1586550751.222,121.094,31.250,27.344,62.988,46.875
1586550751.226,7.812,32.715,30.762,30.762,30.273
1586550751.230,-45.410,27.344,26.855,3.418,26.367
1586550751.234,34.180,27.832,21.484,29.785,25.391
1586550751.238,123.535,28.809,18.066,72.754,52.246
1586550751.242,50.293,28.320,21.484,38.574,62.500
1586550751.246,-43.457,33.203,28.809,-6.348,6.348
1586550751.250,6.836,37.109,26.367,15.137,9.277
1586550751.254,102.051,36.133,25.391,62.500,62.988
1586550751.258,64.941,34.180,24.902,59.082,40.527
1586550751.262,-33.203,35.645,23.926,11.719,13.672
1586550751.265,-10.254,34.668,24.414,3.906,14.648
1586550751.269,88.867,33.203,23.438,53.223,35.645
1586550751.273,93.262,30.273,23.926,64.941,75.684
1586550751.277,-28.320,27.344,24.414,13.184,45.898
1586550751.281,-57.129,31.738,23.438,-0.488,-11.719
1586550751.285,31.738,37.109,24.414,31.250,-29.785
1586550751.289,100.586,38.086,26.855,60.059,52.246
1586550751.293,1.465,39.062,28.809,25.391,52.246
1586550751.297,-62.988,34.668,27.832,-4.395,-2.441
1586550751.301,6.836,27.832,25.391,11.230,-5.371
1586550751.304,102.539,30.273,23.926,49.316,56.152
1586550751.308,36.621,35.156,23.926,33.691,41.504
1586550751.312,-53.223,35.645,26.367,-3.418,7.324
1586550751.316,-5.859,34.180,26.855,13.184,49.805
1586550751.320,98.633,36.133,26.367,61.035,58.105
1586550751.324,77.148,33.203,24.414,60.059,25.879
1586550751.328,-38.086,30.273,27.344,11.719,18.555
1586550751.332,-27.832,30.762,30.273,11.230,-10.742
1586550751.336,77.637,31.250,25.879,56.152,10.742
1586550751.340,106.445,33.203,29.297,69.824,51.270
1586550751.344,-8.301,32.715,32.227,21.484,24.414
1586550751.347,-36.621,31.250,24.414,-2.930,-8.301
1586550751.351,48.828,29.297,20.996,25.879,-41.504
1586550751.355,111.816,26.367,24.414,61.035,27.832
1586550751.359,12.207,25.879,27.344,29.785,-5.859
1586550751.363,-61.523,25.879,28.809,-4.395,-65.918
1586550751.367,5.859,26.367,28.809,18.555,-28.809
1586550751.371,102.051,30.273,26.855,62.012,29.785
1586550751.375,44.434,30.762,26.855,38.574,55.176
1586550751.379,-50.781,29.785,27.344,-10.254,65.430
1586550751.383,-19.043,26.855,23.926,-1.953,50.781
1586550751.387,87.891,21.973,23.438,43.457,47.363
1586550751.390,85.449,20.996,26.367,47.852,69.824
1586550751.394,-28.809,23.926,29.785,-1.953,47.363
1586550751.398,-32.715,24.902,31.250,-12.695,33.691
1586550751.402,57.129,24.414,26.855,27.832,22.949
1586550751.406,101.562,28.809,25.391,57.129,50.293
1586550751.410,-8.301,31.738,28.809,12.207,51.758
1586550751.414,-45.410,30.762,26.855,-11.719,8.789
1586550751.418,45.898,29.785,26.855,30.762,4.883
1586550751.422,116.699,28.809,26.367,66.406,57.617
1586550751.426,32.715,30.762,22.461,31.250,64.941
1586550751.429,-33.691,30.762,23.926,-4.395,18.555
1586550751.433,16.602,26.367,21.973,11.719,41.016
1586550751.437,107.422,27.344,21.484,56.641,98.145
1586550751.441,57.617,30.762,23.926,41.992,105.957
1586550751.445,-48.828,28.809,20.996,-8.789,68.848
1586550751.449,-27.344,28.320,16.113,-0.977,19.531
1586550751.453,67.871,28.809,20.020,48.340,26.855
1586550751.457,79.590,29.785,23.926,56.152,38.086
1586550751.461,-31.738,31.250,23.926,6.348,30.273
1586550751.465,-48.828,25.391,25.879,-5.371,23.438
1586550751.469,38.086,21.973,25.879,31.250,11.719
1586550751.472,85.938,30.273,26.367,56.152,49.805
1586550751.476,-15.625,30.273,27.832,16.602,65.430
1586550751.480,-63.965,28.320,26.855,-12.695,36.621
1586550751.484,14.648,31.738,26.367,11.719,52.734
1586550751.488,105.469,33.691,26.367,51.270,74.707
1586550751.492,30.762,33.203,26.855,21.484,37.109
1586550751.496,-63.477,33.203,24.414,-15.625,34.668
1586550751.500,-15.137,33.691,24.902,10.742,-21.973
1586550751.504,90.820,29.297,28.320,51.758,-45.410
1586550751.508,66.895,31.738,26.367,37.109,33.691
1586550751.512,-35.156,33.203,26.367,-4.883,86.914
1586550751.515,-16.602,28.320,27.832,-3.418,56.641
1586550751.519,84.961,26.855,27.344,39.551,35.156
1586550751.523,106.934,29.785,28.320,56.641,53.711
1586550751.527,-12.695,30.273,28.809,12.695,25.879
1586550751.531,-30.273,25.391,29.297,-0.488,31.250
1586550751.535,77.148,25.391,24.902,42.969,25.391
1586550751.539,133.301,27.832,19.531,76.660,38.574
1586550751.543,25.879,22.949,25.879,31.738,2.441
1586550751.547,-38.574,19.531,30.273,-1.953,-40.527
1586550751.551,27.832,19.531,25.879,20.508,25.879
1586550751.554,118.652,19.043,25.879,62.012,35.156
1586550751.558,42.969,22.461,29.785,43.457,-20.508
1586550751.562,-49.805,26.367,27.832,1.465,-50.293
1586550751.566,0.488,22.461,26.367,15.137,-22.949
1586550751.570,105.957,22.949,26.855,53.223,35.645
1586550751.574,86.914,26.367,28.809,43.457,44.434
1586550751.578,-31.738,23.926,29.785,-1.465,-16.602
1586550751.582,-30.273,22.949,27.344,-6.348,3.906
1586550751.586,70.801,27.832,24.902,28.320,32.227
1586550751.590,110.840,37.109,26.367,49.316,15.625
1586550751.594,-0.977,39.062,25.879,8.789,-10.742
1586550751.597,-37.598,36.621,25.391,-10.254,-58.105
1586550751.601,46.387,37.598,26.855,25.879,-35.645
1586550751.605,113.770,37.598,25.391,57.129,53.711
1586550751.609,25.391,35.645,25.391,20.996,38.574
1586550751.613,-38.574,30.762,21.973,-13.184,-38.574
1586550751.617,29.785,27.344,20.020,12.695,-14.648
1586550751.621,125.000,26.367,24.414,63.477,25.391
1586550751.625,70.312,29.785,26.855,49.805,34.668
1586550751.629,-36.621,32.227,27.344,6.348,26.367
1586550751.633,-8.301,27.832,27.344,18.066,45.898
1586550751.637,101.074,27.832,27.344,59.570,46.875
1586550751.640,95.215,28.809,32.227,61.035,25.879
1586550751.644,-19.043,28.320,31.250,13.184,18.555
1586550751.648,-17.578,25.879,25.879,2.441,56.152
1586550751.652,74.707,20.996,27.344,40.039,109.863
1586550751.656,118.164,22.949,27.344,61.523,69.824
1586550751.660,9.277,24.414,32.227,24.414,48.828
1586550751.664,-47.852,19.043,34.180,0.977,16.602
1586550751.668,32.227,20.508,29.785,30.762,3.906
1586550751.672,117.676,25.391,23.926,69.336,92.773
1586550751.676,32.715,21.484,23.438,30.273,108.398
1586550751.679,-42.480,22.461,27.832,-9.766,51.270
1586550751.683,21.973,31.738,29.785,17.090,-13.184
1586550751.687,116.211,33.691,24.902,58.105,13.184
1586550751.691,69.824,33.691,23.926,41.016,53.711
1586550751.695,-37.598,33.691,29.785,-4.395,20.020
1586550751.699,-18.066,29.297,28.320,-4.883,-29.297
1586550751.703,83.496,24.414,26.855,34.668,-30.273
1586550751.707,92.773,28.809,28.320,45.410,22.461
1586550751.711,-16.602,30.762,30.762,0.977,26.855
1586550751.715,-29.297,28.320,29.785,-5.859,36.621
1586550751.719,63.965,34.180,25.391,33.203,22.949
1586550751.722,123.047,35.156,22.461,58.594,36.621
1586550751.726,20.996,33.203,22.949,16.602,13.672
1586550751.730,-34.180,31.250,23.438,-11.230,-33.691
1586550751.734,46.387,31.738,22.949,17.090,69.824
1586550751.738,127.930,31.250,25.879,51.758,101.562
1586550751.742,43.457,27.832,27.344,25.879,27.344
1586550751.746,-38.086,27.832,31.738,-5.371,5.371
1586550751.750,4.395,28.320,34.180,11.719,33.203
1586550751.754,97.656,23.926,26.367,49.316,63.477
1586550751.758,69.824,18.555,24.902,41.504,115.234
1586550751.762,-40.039,19.043,26.855,-5.371,43.457
1586550751.765,-24.414,27.344,26.367,-5.859,-32.715
1586550751.769,78.125,33.691,24.902,35.645,61.035
1586550751.773,104.004,36.133,25.879,49.805,112.793
1586550751.777,-6.836,34.668,26.855,4.395,84.961
1586550751.781,-24.902,30.762,23.926,-10.254,47.852
1586550751.785,64.941,29.297,20.996,23.438,57.129
1586550751.789,123.535,32.227,20.020,52.246,50.781
1586550751.793,26.855,35.645,20.020,17.578,-35.156
1586550751.797,-35.156,35.645,21.484,-9.766,-59.082
1586550751.801,30.273,33.203,27.832,18.066,-16.113
1586550751.804,130.859,30.762,29.785,61.035,73.242
1586550751.808,71.777,30.273,26.855,42.480,76.660
1586550751.812,-33.203,30.762,28.320,-0.977,8.789
1586550751.816,2.441,32.227,28.320,9.766,-0.488
1586550751.820,103.027,32.227,27.344,52.246,39.062
1586550751.824,82.031,31.250,29.297,46.387,61.035
1586550751.828,-28.320,29.785,28.320,-3.906,13.672
1586550751.832,-17.578,27.344,25.879,-7.812,6.836
1586550751.836,82.031,24.902,28.320,36.133,97.656
1586550751.840,121.582,22.461,27.832,59.570,118.652
1586550751.844,6.836,23.438,23.926,12.207,11.719
1586550751.847,-32.715,25.391,22.461,-5.371,-8.789
1586550751.851,57.129,25.391,24.902,33.691,39.062
1586550751.855,125.000,27.832,26.855,62.012,56.152
1586550751.859,25.879,27.832,27.344,28.320,27.832
1586550751.863,-46.875,25.879,28.320,-6.348,-18.555
1586550751.867,14.648,23.438,24.414,11.719,-35.156
1586550751.871,115.723,24.902,24.414,62.012,27.832
1586550751.875,60.059,29.297,27.344,51.270,49.316
1586550751.879,-44.922,29.297,22.461,2.441,3.906
1586550751.883,-8.301,26.855,26.855,13.184,31.738
1586550751.887,103.027,29.297,34.180,62.988,74.219
1586550751.890,97.656,26.855,32.227,67.871,72.266
1586550751.894,-25.879,24.902,28.320,13.672,24.902
1586550751.898,-26.855,25.391,25.879,1.953,16.113
1586550751.902,72.754,24.414,27.344,42.480,62.988
1586550751.906,111.328,24.902,28.320,60.547,99.609
1586550751.910,2.441,27.832,30.273,16.113,13.184
1586550751.914,-37.109,30.762,26.855,-11.230,-40.039
1586550751.918,49.316,26.367,22.949,18.555,18.555
1586550751.922,135.254,31.250,26.855,65.430,93.262
1586550751.926,46.387,40.039,27.344,35.156,79.590
1586550751.929,-39.551,37.598,23.926,-8.301,27.832
1586550751.933,16.602,34.668,21.973,5.371,34.180
1586550751.937,116.211,33.691,19.531,47.852,85.938
1586550751.941,75.195,29.785,20.996,43.945,75.684
1586550751.945,-35.156,26.855,23.438,6.836,4.395
1586550751.949,-15.625,26.367,25.391,12.207,-23.926
1586550751.953,87.402,24.414,27.344,52.246,-15.137
1586550751.957,91.797,23.438,24.414,61.035,37.109
1586550751.961,-33.203,28.320,23.438,8.789,-16.113
1586550751.965,-40.527,33.691,30.273,-2.441,-38.574
1586550751.969,67.871,32.227,37.109,39.062,33.203
1586550751.972,120.605,27.832,36.621,60.059,86.914
1586550751.976,18.066,27.344,34.180,22.949,52.734
1586550751.980,-37.109,24.902,30.273,-0.488,22.461
1586550751.984,32.715,23.926,27.832,24.414,38.086
1586550751.988,123.535,24.414,27.344,67.383,40.527
1586550751.992,44.434,25.879,24.902,44.434,43.945
1586550751.996,-38.574,29.297,28.809,6.348,15.625
1586550752.000,16.602,30.273,29.785,23.926,55.176
1586550752.004,108.398,26.367,26.367,62.988,75.195
1586550752.008,75.195,22.949,29.297,51.758,44.922
1586550752.012,-40.527,27.344,28.320,-3.906,39.062
1586550752.015,-25.879,31.250,23.926,-2.930,-22.461
1586550752.019,84.473,34.180,22.461,49.805,-24.902
1586550752.023,99.609,33.203,23.926,62.500,53.223
1586550752.027,-19.043,29.785,26.855,11.719,43.945
1586550752.031,-31.250,30.762,27.344,-6.836,18.066
1586550752.035,54.688,33.203,23.926,28.809,5.371
1586550752.039,113.770,32.715,26.367,63.965,31.250
1586550752.043,18.066,32.227,27.344,32.227,27.832
1586550752.047,-43.945,29.785,21.484,-3.418,35.156
1586550752.051,21.484,26.367,22.461,10.742,59.082
1586550752.054,113.770,26.855,22.461,54.688,59.082
1586550752.058,50.293,29.297,21.973,41.016,67.383
1586550752.062,-54.688,29.297,23.926,-6.348,39.062
1586550752.066,-19.043,27.344,24.902,3.906,-10.742
1586550752.070,86.914,25.879,25.391,51.758,32.715
1586550752.074,67.871,23.438,24.414,50.781,51.758
1586550752.078,-47.363,25.391,26.855,8.301,-21.973
1586550752.082,-34.668,26.855,25.879,8.301,-37.598
1586550752.086,70.312,26.855,24.414,45.410,24.414
1586550752.090,98.145,28.809,24.414,56.152,86.426
1586550752.094,-18.066,25.879,21.973,4.395,64.453
1586550752.097,-48.828,26.367,25.391,-15.625,66.895
1586550752.101,37.598,29.297,21.973,17.578,53.711
1586550752.105,105.469,25.391,17.578,52.734,56.152
1586550752.109,21.973,27.832,25.391,23.438,67.383
1586550752.113,-41.016,32.715,28.320,-4.395,19.043
1586550752.117,9.277,32.227,29.297,22.949,0.977
1586550752.121,96.191,29.297,30.762,67.383,33.203
1586550752.125,53.223,30.762,30.273,50.781,62.988
1586550752.129,-40.527,33.691,32.227,5.371,57.129
1586550752.133,-16.602,31.738,24.902,6.836,-2.930
1586550752.137,89.355,27.832,22.461,46.875,-5.371
1586550752.140,92.285,28.320,31.738,54.688,52.734
1586550752.144,-32.227,29.785,31.738,12.207,34.180
1586550752.148,-39.551,30.762,26.367,3.418,13.184
1586550752.152,64.941,28.320,29.297,40.039,23.438
1586550752.156,111.816,28.320,32.227,63.477,41.992
1586550752.160,0.977,30.273,30.762,25.391,37.109
1586550752.164,-43.457,29.785,29.785,4.395,-17.578
1586550752.168,29.297,29.297,31.250,33.203,-17.578
1586550752.172,100.586,26.855,29.297,64.941,31.250
1586550752.176,23.438,25.391,28.320,35.645,24.902
1586550752.179,-55.176,24.902,24.902,3.418,-12.695
1586550752.183,0.000,25.879,23.926,23.438,-44.922
1586550752.187,105.957,28.320,25.391,67.871,24.902
1586550752.191,65.918,28.809,26.855,56.641,52.734
1586550752.195,-38.086,27.832,28.320,11.230,10.254
1586550752.199,-10.742,25.391,27.344,13.184,0.977
1586550752.203,87.402,20.508,24.902,48.340,26.855
1586550752.207,93.750,28.809,25.391,53.711,68.359
1586550752.211,-23.926,38.086,27.832,3.906,0.977
1586550752.215,-36.133,33.203,26.367,-3.418,14.160
1586550752.219,52.734,31.738,23.926,39.062,85.938
1586550752.222,96.680,31.738,21.484,60.547,71.777
1586550752.226,-2.441,28.809,23.438,16.602,32.227
1586550752.230,-51.758,30.273,26.855,-11.719,-22.949
1586550752.234,27.344,30.762,27.344,17.578,-35.645
1586550752.238,104.492,29.785,29.785,53.711,34.668
1586550752.242,28.809,31.250,27.832,29.297,62.500
1586550752.246,-51.758,35.156,23.926,-5.371,2.441
1586550752.250,-9.277,32.715,26.855,7.812,-4.883
1586550752.254,97.656,30.273,26.855,58.105,32.227
1586550752.258,79.102,33.203,25.391,57.617,27.344
1586550752.262,-43.457,34.180,28.809,2.441,18.066
1586550752.265,-38.574,30.273,28.809,0.977,23.926
1586550752.269,61.523,30.273,27.832,45.410,58.594
1586550752.273,83.008,30.762,28.320,55.664,53.711
1586550752.277,-22.949,33.203,32.227,14.160,7.812
1586550752.281,-41.504,34.668,31.738,2.441,-30.273
1586550752.285,48.340,30.762,23.438,33.203,-6.836
1586550752.289,112.305,29.297,21.484,60.547,72.266
1586550752.293,18.555,28.809,26.367,22.461,103.516
1586550752.297,-32.715,29.785,28.809,-8.789,80.566
1586550752.301,35.156,30.273,26.367,18.066,41.016
1586550752.304,114.258,26.855,24.414,63.477,51.758
1586550752.308,41.992,28.320,25.391,37.109,73.242
1586550752.312,-54.199,29.785,22.949,-9.766,41.992
1586550752.316,-9.766,26.367,23.438,14.160,19.043
1586550752.320,94.727,24.902,25.391,63.965,40.527
1586550752.324,82.520,25.391,29.297,55.176,39.062
1586550752.328,-31.250,22.461,31.250,-0.977,27.832
1586550752.332,-27.344,24.414,27.832,-7.812,-11.719
1586550752.336,72.266,29.785,25.391,37.598,16.602
1586550752.340,111.328,31.738,24.414,61.523,62.500
1586550752.344,-1.953,33.203,26.367,19.531,-0.488
1586550752.347,-36.133,29.297,28.809,2.930,-10.742
1586550752.351,52.246,26.855,28.320,35.156,-16.602
1586550752.355,128.418,30.273,22.949,77.148,32.227
1586550752.359,43.457,30.273,26.855,45.898,50.293
1586550752.363,-39.062,23.438,32.715,-3.418,11.230
1586550752.367,23.926,21.484,29.785,15.137,24.414
1586550752.371,125.977,23.438,27.832,62.012,33.203
1586550752.375,64.453,22.949,28.320,42.969,7.324
1586550752.379,-39.062,22.461,28.809,3.906,-26.855
1586550752.383,-9.277,20.508,29.297,13.184,-5.859
1586550752.387,98.145,21.973,29.297,52.734,66.895
1586550752.390,101.074,27.832,32.227,60.059,57.617
1586550752.394,-14.160,31.738,33.691,14.648,7.324
1586550752.398,-12.695,30.762,34.668,2.930,11.230
1586550752.402,82.031,28.809,35.645,40.527,-16.602
1586550752.406,125.977,28.320,38.086,70.312,47.852
1586550752.410,21.973,27.832,37.598,31.738,49.316
1586550752.414,-21.973,26.367,33.203,7.324,30.762
1586550752.418,55.664,26.855,30.762,37.109,50.781
1586550752.422,135.254,28.809,28.809,73.242,71.289
1586550752.426,57.129,31.250,30.762,42.969,52.246
1586550752.429,-26.367,30.762,26.367,-0.488,-31.250
1586550752.433,26.367,30.273,21.973,17.090,-25.391
1586550752.437,125.000,31.250,27.344,62.988,47.363
1586550752.441,82.520,27.344,31.738,56.641,66.406
1586550752.445,-22.949,26.855,31.738,9.277,44.922
1586550752.449,3.906,33.203,30.273,8.301,-30.273
1586550752.453,101.074,33.691,29.297,51.270,8.301
1586550752.457,104.004,32.715,28.320,62.988,105.469
1586550752.461,-11.230,29.785,30.762,15.625,15.137
1586550752.465,-30.273,29.297,28.809,5.859,-33.691
1586550752.469,57.617,30.762,26.855,38.574,25.391
1586550752.472,113.770,31.738,29.297,63.965,84.473
1586550752.476,8.789,27.832,29.785,26.855,64.941
1586550752.480,-47.852,26.367,23.926,0.488,39.551
1586550752.484,30.273,29.785,20.996,24.902,51.270
1586550752.488,109.863,29.785,25.879,61.523,62.988
1586550752.492,27.832,28.809,30.273,42.480,82.031
1586550752.496,-66.895,28.320,32.227,0.488,71.289
1586550752.500,-22.461,26.855,32.715,12.695,-24.414
1586550752.504,87.402,26.367,30.762,52.246,31.250
1586550752.508,54.199,27.832,29.297,44.434,109.863
1586550752.512,-57.617,28.809,28.809,1.465,21.973
1586550752.515,-37.598,28.320,25.879,-1.465,3.906
1586550752.519,57.617,29.785,23.926,38.574,34.668
1586550752.523,77.148,28.809,24.902,58.105,59.082
1586550752.527,-35.156,23.438,27.832,15.625,37.598
1586550752.531,-56.152,22.461,27.344,-8.301,-29.785
1586550752.535,37.598,26.855,26.855,25.391,-7.812
1586550752.539,97.168,27.832,29.785,56.152,62.988
1586550752.543,-1.465,25.879,29.785,18.066,62.988
1586550752.547,-57.129,23.926,24.902,-7.812,-2.930
1586550752.551,15.137,27.832,24.902,12.695,41.504
1586550752.554,115.723,35.156,26.367,48.828,54.688
1586550752.558,50.781,32.227,27.344,30.273,-31.250
1586550752.562,-63.965,26.367,28.320,-15.625,-58.594
1586550752.566,-36.133,31.738,27.344,-3.418,-11.719
1586550752.570,79.590,30.273,28.809,50.781,14.160
1586550752.574,69.336,24.902,30.273,59.570,4.395
1586550752.578,-48.828,29.785,28.809,0.977,-1.465
1586550752.582,-48.828,30.273,29.297,-10.742,21.973
1586550752.586,51.758,28.809,27.344,32.227,37.598
1586550752.590,92.773,31.250,27.344,50.293,41.504
1586550752.594,-15.625,30.762,32.227,14.648,4.395
1586550752.597,-50.781,29.297,29.785,-2.441,-10.254
1586550752.601,33.691,29.785,28.809,32.715,5.859
1586550752.605,107.422,28.320,27.344,67.383,45.410
1586550752.609,14.160,25.391,26.367,32.227,114.258
1586550752.613,-59.570,22.949,30.273,-2.441,65.430
1586550752.617,0.488,21.484,29.785,14.160,-32.715
1586550752.621,99.609,25.879,28.809,54.199,39.551
1586550752.625,49.316,27.344,27.832,36.133,73.242
1586550752.629,-53.223,23.926,26.367,-8.789,-8.301
1586550752.633,-17.090,20.508,29.297,2.930,0.488
1586550752.637,83.984,21.973,29.785,46.387,16.113
1586550752.640,78.613,26.367,27.344,48.340,10.254
1586550752.644,-34.180,29.785,23.926,-2.441,12.207
1586550752.648,-37.598,21.973,25.391,-8.301,-2.930
1586550752.652,62.988,19.043,27.832,34.180,-20.020
1586550752.656,111.816,26.855,26.367,59.570,10.742
1586550752.660,-6.836,28.809,27.832,17.578,20.508
1586550752.664,-52.246,28.320,23.438,-6.348,20.508
1586550752.668,33.691,28.320,24.414,19.043,5.859
1586550752.672,110.352,32.715,25.879,53.223,35.156
1586550752.676,24.902,37.109,21.484,35.156,31.738
1586550752.679,-52.246,32.227,26.855,0.488,2.441
1586550752.683,2.930,25.879,26.855,11.230,-2.441
1586550752.687,97.656,26.367,24.414,52.246,24.414
1586550752.691,59.082,25.391,24.902,43.945,20.996
1586550752.695,-45.898,23.438,24.414,-3.418,18.066
1586550752.699,-21.973,26.855,28.809,-0.977,23.438
1586550752.703,80.078,30.273,28.809,44.434,64.941
1586550752.707,87.891,28.809,28.320,54.688,117.188
1586550752.711,-22.949,27.832,28.320,10.254,24.902
1586550752.715,-35.645,27.344,23.438,-0.488,14.648
1586550752.719,55.176,29.785,23.926,36.621,50.781
1586550752.722,117.188,29.297,21.973,68.848,58.594
1586550752.726,12.695,24.902,23.438,29.297,20.508
1586550752.730,-48.828,26.367,27.832,-4.883,-23.926
1586550752.734,29.785,27.344,26.855,19.531,36.621
1586550752.738,125.488,25.391,29.297,61.035,76.660
1586550752.742,54.199,27.832,32.715,40.527,79.590
1586550752.746,-40.527,27.832,31.738,-1.465,13.672
1586550752.750,6.836,20.508,30.762,11.719,5.859
1586550752.754,97.656,20.020,27.344,54.199,35.645
1586550752.758,64.453,28.809,25.391,48.340,41.016
1586550752.762,-42.480,27.344,28.809,3.906,52.734
1586550752.765,-30.273,26.855,27.832,1.953,8.789
1586550752.769,64.941,34.180,25.879,41.016,47.852
1586550752.773,89.844,32.715,24.414,56.152,97.168
1586550752.777,-12.695,28.320,22.461,10.254,51.270
1586550752.781,-29.297,30.273,21.973,-7.324,39.062
1586550752.785,61.523,29.785,20.508,32.227,24.902
1586550752.789,127.441,29.297,23.438,64.941,80.566
1586550752.793,30.273,29.297,26.855,29.297,61.035
1586550752.797,-33.691,29.297,26.855,2.441,-29.785
1586550752.801,35.645,29.785,26.855,25.391,-24.414
1586550752.804,133.789,29.785,22.949,65.918,17.578
1586550752.808,69.336,30.273,20.508,48.340,31.250
1586550752.812,-31.250,29.297,23.438,3.906,10.254
1586550752.816,10.254,29.297,24.902,11.230,-0.488
1586550752.820,105.957,26.855,25.391,44.922,29.785
1586550752.824,94.238,26.855,25.879,43.945,86.914
1586550752.828,-11.230,33.203,25.391,6.348,32.227
1586550752.832,-11.719,35.156,24.414,0.977,0.488
1586550752.836,85.938,32.715,23.438,45.410,17.090
1586550752.840,128.418,33.691,22.949,72.754,25.391
1586550752.844,12.207,33.203,24.902,21.973,48.828
1586550752.847,-30.273,31.738,27.344,-1.465,24.414
1586550752.851,47.363,30.273,25.879,35.156,13.672
1586550752.855,113.770,29.785,25.391,68.359,22.949
1586550752.859,30.273,30.273,26.367,37.109,35.156
1586550752.863,-39.062,31.250,27.832,-3.418,-12.207
1586550752.867,22.461,31.738,28.320,13.672,-51.758
1586550752.871,122.559,29.785,28.320,64.941,15.137
1586550752.875,71.289,32.227,28.809,52.246,21.973
1586550752.879,-36.133,34.180,27.832,3.418,-38.086
1586550752.883,-3.418,34.180,28.320,8.301,44.434
1586550752.887,100.586,32.715,28.320,52.734,101.074
1586550752.890,101.074,29.297,26.855,64.941,73.242
1586550752.894,-16.113,31.738,27.832,12.695,70.801
1586550752.898,-24.414,33.203,26.855,-1.953,51.270
1586550752.902,71.289,32.227,22.949,38.574,75.195
1586550752.906,114.258,32.227,27.344,59.570,32.227
1586550752.910,8.301,29.785,29.785,20.020,13.184
1586550752.914,-38.086,30.762,24.414,-7.324,40.527
1586550752.918,33.691,35.645,22.949,21.973,62.500
1586550752.922,110.352,33.203,26.855,60.547,84.473
1586550752.926,31.738,34.180,29.785,32.715,73.730
1586550752.929,-50.293,37.109,29.297,-3.418,39.062
1586550752.933,-1.953,36.621,28.320,11.719,3.906
1586550752.937,102.539,37.598,28.320,55.664,31.738
1586550752.941,64.453,35.156,27.832,46.875,79.102
1586550752.945,-46.875,32.715,28.809,0.977,41.992
1586550752.949,-26.855,32.715,29.785,4.395,-43.945
1586550752.953,74.219,32.715,27.344,46.387,25.391
1586550752.957,91.309,33.203,25.879,52.246,41.016
1586550752.961,-20.508,32.227,27.832,1.953,-14.648
1586550752.965,-34.668,33.203,27.832,-8.789,-35.156
1586550752.969,52.734,33.691,24.902,27.344,0.000
1586550752.972,106.445,32.227,24.902,52.246,78.613
1586550752.976,8.301,30.273,23.438,18.066,62.500
1586550752.980,-48.340,28.809,23.438,-4.395,-20.508
1586550752.984,20.508,26.855,26.855,24.414,-6.836
1586550752.988,112.305,27.832,27.832,67.871,50.293
1586550752.992,49.316,29.297,28.320,40.039,48.828
1586550752.996,-38.574,29.297,26.367,-2.441,-13.672
1586550753.000,5.859,29.785,22.461,4.395,-18.555
1586550753.004,106.445,31.250,21.484,48.828,19.043
1586550753.008,72.266,35.645,24.902,52.246,33.203
1586550753.012,-50.293,33.203,25.391,0.977,41.504
